# FILTER  = 'clear   '           / Filter
# EXPTIME =              300.016 / Total exposure time (sec); avg. of R&B         
# OBJECT  = 'ZTF20aalxlis'       / User-specified object name
# TARGNAME= 'ZTF20aalxlis_S1'    / Target name (from starlist)
# DICHNAME= '560     '           / Dichroic
# GRISNAME= '400/3400'           / Blue grism                                     
# GRANAME = '400/8500'           / Red grating                                    
# WAVELEN =        7829.41406250 / Red specified central wavelength               
# BLUFILT = 'clear   '           / Blue filter                                    
# REDFILT = 'Clear   '           / Red filter                                     
# SLITNAME= 'long_1.0'           / Slitmask
# INSTRUME= 'LRIS+LRISBLUE'      / Camera                                         
# TELESCOP= 'Keck I  '           / Telescope name
# BLUDET  = 'LRISB   '           / LRIS blue detector                             
# REDDET  = 'LRISR3  '           / LRIS red detector                              
# OBSERVER= 'Yao, Sharma'        / Observer name
# REDUCER = '        '           / Name of reducer
# LPIPEVER= '2019.03 '           / LPipe version number
# HOSTNAME= 'gayatri '           / LPipe host computer name
# IDLVER  = '8.1     '           / IDL version number
# DATE    = '2020-03-22T12:10:55' / UT end of last exposure                       
# UTC     = '12:05:40.92'        / Universal time (excl. day) at start
# MJD-OBS = '58930.503952'       / MJD at start
# JD      =        2458931.00395 / Julian date at start
# JDMID   =        2458931.00569 / Julian date at midpoint
# JDEND   =        2458931.00759 / Julian date end of last exposure               
# MJD     =        58930.5039520 / Mean julian date at start
# MJDMID  =        58930.5056881 / Mean julian date at midpoint
# MJDEND  =        58930.5075896 / Mean julian date end of last exposure          
# DATE_BEG= '2020-03-22T12:05:41' / UT start of first exposure                    
# DATE_END= '2020-03-22T12:10:55' / UT end of last exposure                       
# OBSDATE = '2020-03-22T12:05:41' / UT start of first exposure                    
# AZ      =        25.0054225800 / Telescope azimuth (deg)
# EL      =        67.1011387800 / Telescope elevation (deg)
# RA      = '14:33:57.05'        / Right ascension
# DEC     = '+40:14:37.3'        / Telescope declination
# HA      = '+23:11:38.84'       / Hour angle at start
# ST      = '13:45:35.89'        / Sidereal time at start
# EQUINOX =        2000.00000000 / Equinox of RA/DEC
# AIRMASS =              1.08534 / Approximate av. airmass of combined spectrum   
# SUNELEV =       -57.9702000000 / Sun elevation (deg)
# MOONELEV=       -48.7286000000 / Moon elevation (deg)
# MOONDIST=        124.807536293 / Distance to moon (deg)
# MOONPHAS=      0.0336381534968 / Lunar phase (1 = full)
# PARANGLE=       -149.575937183 / Parallactic angle (at start, deg)
# OFFPA   =        359.575967701 / Slit rotation vs. parallactic angle (deg)
# SLITPA  =              210.000 / Slit or right chip CCW from North (deg)
# ROTPOSN =        120.000019110 / Rotator angle (deg; 90 = slit north)
# ROTPPOSN=       -91.9352580300 / Rotator physical position (deg)
# DOMEPOSN=        25.3268022200 / Dome azimuth angle (deg)
# TRAPDOOR= 'open    '           / Trapdoor status (open/closed)
# CURRINST= 'LRISADC '           / ADC instrument
# ADCWAVE0=        3400.00000000 / ADC min. compensation wavelength (Ang)
# ADCWAVE1=        9000.00000000 / ADC max. compensation wavelength (Ang)
# PREPARED= '2020-03-22T17:43:39' / Timestamp of prepare reduction step
# TOTALEXP=              300.016 / Total exposure time (sec); avg. of R&B         
# EXTDATE = '2020-03-22T17:53:25' / UT time 1D spectrum extracted by specextract
# REDUCED = '2020-03-22T17:54:57' / Timestamp of connect reduction step           
# MINWAV  =        1829.89185387 / Minimum wavelength                             
# MAXWAV  =        10307.3404462 / Maximum wavelength                             
# SOLFILE = 'fpb200322_0010r_arc.sol' / Secondary wave calibration solution
# BLUFILE = 'celsb200322_0034r_ZTF20aalxlis.spec' / Blue spectrum file            
# REDFILE = 'celsr200322_0040r_ZTF20aalxlis.spec' / Red spectrum file             
# JDSTART =        2458931.00395 / Julian date start of first exposure            
# MJDSTART=        58930.5039520 / Mean julian date start of first exposure       
# RESCALER=        1.04878371719 / Rescaling factor applied to red                
# RESCALEB=              1.00000 / (blue not rescaled)                            
# WAVOVER = '5561.44-5724.10'    / Wavelength region of useable red-blue overlap  
# ATCHWAV =        5664.78515625 / Red-blue connection wavelength                 
# BLUDBEG = '2020-03-22T12:05:41' / UT start of first blue exposure               
# REDDBEG = '2020-03-22T12:05:55' / UT start of first red exposure                
# BLUDEND = '2020-03-22T12:10:40' / UT end of last blue exposure                  
# REDDEND = '2020-03-22T12:10:55' / UT end of last red exposure                   
# BLUNEXP =                    1 / Num. blue exposures summed                     
# REDNEXP =                    1 / Num. red exposures summed                      
# BLUEXPTM=              300.000 / Blue exposure time                             
# REDEXPTM=              300.031 / Red exposure time                              
# REDEXP1 =              300.031 /                                                
# BLUEXP1 =              300.000 /                                                
# BLUAIR1 =              1.08545 /                                                
# REDAIR1 =              1.08522 /                                                
# BLUBIN  = '2,2     '           / Blue binning (spat,spec)                       
# REDBIN  = '2,1     '           / Red binning (spat,spec)                        
# BLUXCENT=                 1587 / Blue X reference pixel for extraction          
# REDXCENT=                 2048 / Red X reference pixel for extraction           
# BLUYCENT=              109.150 / Blue Y extraction center position              
# REDYCENT=              66.1300 / Red Y extraction center position               
# BLUAPRAD=              2.88000 / Blue extraction aperture half-width            
# REDAPRAD=              2.88000 / Red extraction aperture half-width             
# BLUBKDST=              5.90000 / Blue background aper. inner edge distance      
# REDBKDST=              5.90000 / Red background aper. inner edge distance       
# BLUBKWID=              14.0000 / Blue background aperture width                 
# REDBKWID=              14.0000 / Red background aperture width                  
# BLUCWAV =        3617.30445269 / Blue central wavelength (Ang)                  
# REDCWAV =        7855.23281719 / Red central wavelength (Ang)                   
# BLUDISP =        2.08334499732 / Blue dispersion (Ang/pix)                      
# REDDISP =        1.19939343776 / Red dispersion (Ang/pix)                       
# BLU2DSPC= 'lsb200322_0034r_ZTF20aalxlis.fits' / Blue 2D spectrum file           
# RED2DSPC= 'lsr200322_0040r_ZTF20aalxlis.fits' / Red 2D spectrum file            
# BLU2DS1 = 'szfpb200322_0034r.fits' / Individual blue 2D spectra                 
# RED2DS1 = 'szfpr200322_0040r.fits' / Individual red 2D spectra                  
# BLUARCF = 'fpb200322_0010r_arc.fits' / Blue arc file                            
# REDARCF = 'fpr200322_0010r_arc.fits' / Red arc file                             
# BLUSOL  = 'fpb200322_0010r_arc.sol' / Blue arc solution file                    
# REDSOL  = 'fpr200322_0010r_arc.sol' / Red arc solution file                     
# BLUFLEX =              2.27445 / Blue flexure correction (Ang)                  
# REDFLEX =              5.96282 / Red flexure correction (Ang)                   
# BLUTRAC = 'lsb200322_0034r_ZTF20aalxlis.trace' / Blue tracing file              
# REDTRAC = 'lsr200322_0040r_ZTF20aalxlis.trace' / Red tracing file               
# BLUFCAL1= 'elsb200322_0022_Feige34.response' / Blue flux standard file          
# REDFCAL1= 'elsr200322_0024_Feige34.response' / Red flux standard file           
# BLUFAIR1=              1.09401 / Blue flux standard airmass                     
# REDFAIR1=              1.09391 / Red flux standard airmass                      
# BLUFNAM1= 'Feige34 '           / Blue flux standard star name                   
# REDFNAM1= 'Feige34 '           / Red flux standard star name                    
# BLUFLAT = 'lb200218_0013s11_domflat.fits' / Blue flat field file name           
# REDFLAT = 'lr200218_0013s5_domflat.fits' / Red flat field file name             
# KOAID1  = '           0'       /                                                
# KOAID2  = '           0'       /                                                
# HISTORY Processed by lrisprepare 2020-03-22 17:43:39 UT
# HISTORY Processed by flatproc 2020-03-22 17:44:02 UT
# HISTORY Processed by lrissplit 2020-03-22 17:44:06 UT
# HISTORY Processed by pzapspec 2020-03-22 17:44:24 UT
# HISTORY Processed by subtractsky2 2020-03-22 17:48:27 UT
# HISTORY Processed by combinesum 2020-03-22 17:51:51 UT
# HISTORY Processed by specextract 2020-03-22 17:53:25 UT
# HISTORY Processed by specwavcal 2020-03-22 17:54:00 UT
# HISTORY Processed by lrisfluxcal 2020-03-22 17:54:42 UT
# HISTORY Processed by lrisconnect 2020-03-22 17:54:57 UT                         
# COMMENT Wavelengths are Angstroms in air                                        
# COMMENT Fluxes are erg/cm^2/s/Ang; absolute calibration is approximate          
# END                                                                             
##   wavelen         flux     sky_flux     flux_unc  xpixel    ypixel     response   flag 
       3061.6785   3.1718500e-17
       3063.6265  -1.3771200e-17
       3065.5750  -2.9130800e-17
       3067.5242   2.7212200e-17
       3069.4739  -8.6297200e-17
       3071.4241   5.3919700e-17
       3073.3750   9.7172300e-17
       3075.3267   1.0295200e-16
       3077.2788   8.9418600e-17
       3079.2314   4.9307300e-18
       3081.1848   1.2355500e-16
       3083.1387  -4.5157900e-18
       3085.0930   2.3886500e-17
       3087.0481   5.2068000e-17
       3089.0039   8.7611400e-17
       3090.9602  -8.3134200e-17
       3092.9170   3.2620700e-17
       3094.8745   5.3409100e-17
       3096.8325   8.3694400e-18
       3098.7913  -2.8694200e-17
       3100.7505   1.0684200e-16
       3102.7102   9.3282200e-17
       3104.6707   9.3019300e-17
       3106.6316   5.2882900e-17
       3108.5930   3.2573700e-19
       3110.5554   3.2994700e-17
       3112.5181   2.3039400e-17
       3114.4812   6.9504600e-17
       3116.4453   3.8724000e-17
       3118.4097   2.2126300e-17
       3120.3748   3.5666700e-17
       3122.3403   6.5366200e-17
       3124.3064   7.8369300e-17
       3126.2732   4.4057200e-17
       3128.2405   3.6681700e-17
       3130.2085   5.3040800e-17
       3132.1770   5.9023100e-17
       3134.1460   3.6673400e-17
       3136.1157   4.9331400e-17
       3138.0859   4.8590600e-17
       3140.0569   5.6150800e-17
       3142.0281   3.2705600e-17
       3144.0000   3.9430100e-17
       3145.9727   5.4348400e-17
       3147.9456   4.2181200e-17
       3149.9192   4.1900800e-17
       3151.8933   8.8945800e-17
       3153.8682   5.1506500e-17
       3155.8435  -8.7708100e-18
       3157.8193   6.1684400e-17
       3159.7959   1.2480800e-17
       3161.7729   3.7740500e-17
       3163.7505   7.0453900e-17
       3165.7285   7.0075900e-17
       3167.7073   3.9776800e-17
       3169.6865   6.2811200e-17
       3171.6665   1.6132700e-17
       3173.6467   5.4166300e-17
       3175.6277   5.4045000e-17
       3177.6091   4.3199600e-17
       3179.5913   3.2171900e-17
       3181.5737   5.9532500e-17
       3183.5569   4.8014600e-17
       3185.5405   8.5023300e-17
       3187.5249   2.9451700e-17
       3189.5098   5.1806100e-17
       3191.4951   9.1604000e-17
       3193.4810   2.2000400e-17
       3195.4673   5.0027500e-17
       3197.4543   6.1173400e-17
       3199.4419   5.1283400e-17
       3201.4299   8.3484900e-17
       3203.4187   6.2345000e-17
       3205.4077   6.7105300e-17
       3207.3977   7.0539000e-17
       3209.3877   6.6773200e-17
       3211.3787   8.3422300e-17
       3213.3701   3.3449400e-17
       3215.3618   7.5878500e-17
       3217.3542   4.2443300e-17
       3219.3474   6.7123300e-17
       3221.3408   5.9332500e-17
       3223.3347   5.0935800e-17
       3225.3293   4.9083800e-17
       3227.3245   6.7233700e-17
       3229.3203   4.9587000e-17
       3231.3164   5.2906500e-17
       3233.3130   4.4451400e-17
       3235.3103   5.4268900e-17
       3237.3081   9.1125400e-17
       3239.3064   7.0427500e-17
       3241.3054   4.3277000e-17
       3243.3047   6.6803600e-17
       3245.3047   5.0152600e-17
       3247.3052   4.8172500e-17
       3249.3059   4.9524200e-17
       3251.3076   5.0420900e-17
       3253.3096   6.6390600e-17
       3255.3120   5.6911100e-17
       3257.3152   5.1255300e-17
       3259.3186   6.6681200e-17
       3261.3228   5.4213900e-17
       3263.3274   5.6796800e-17
       3265.3325   7.5290300e-17
       3267.3384   6.1121200e-17
       3269.3445   6.8703800e-17
       3271.3513   6.4699900e-17
       3273.3584   6.3917200e-17
       3275.3662   5.1695700e-17
       3277.3745   6.9597100e-17
       3279.3833   5.4088500e-17
       3281.3926   5.4019000e-17
       3283.4023   4.3854600e-17
       3285.4126   5.6302600e-17
       3287.4236   4.3253900e-17
       3289.4348   6.5844700e-17
       3291.4468   5.2455600e-17
       3293.4590   5.8606900e-17
       3295.4719   5.8502000e-17
       3297.4854   6.3589000e-17
       3299.4993   4.0988800e-17
       3301.5137   4.7453400e-17
       3303.5286   6.5542500e-17
       3305.5439   4.2686800e-17
       3307.5598   5.4995900e-17
       3309.5762   6.7236100e-17
       3311.5933   5.4772000e-17
       3313.6106   5.2448900e-17
       3315.6284   4.4766000e-17
       3317.6470   7.0609200e-17
       3319.6660   6.0031100e-17
       3321.6853   4.7782400e-17
       3323.7051   6.5346900e-17
       3325.7256   5.4695100e-17
       3327.7466   5.5139400e-17
       3329.7681   6.5039900e-17
       3331.7898   6.1740500e-17
       3333.8123   6.4203800e-17
       3335.8352   4.9251700e-17
       3337.8586   6.5509200e-17
       3339.8823   6.5481300e-17
       3341.9067   5.0673300e-17
       3343.9316   5.1684200e-17
       3345.9570   5.9205400e-17
       3347.9829   5.7987800e-17
       3350.0093   7.0985600e-17
       3352.0359   4.7644600e-17
       3354.0632   6.2330100e-17
       3356.0911   4.4531400e-17
       3358.1194   6.7142700e-17
       3360.1482   5.0168300e-17
       3362.1775   4.4187800e-17
       3364.2070   6.6310700e-17
       3366.2373   5.8944700e-17
       3368.2681   5.6585300e-17
       3370.2993   5.3768300e-17
       3372.3308   6.1459100e-17
       3374.3630   6.3275800e-17
       3376.3955   5.2489100e-17
       3378.4287   5.8354200e-17
       3380.4624   6.2166100e-17
       3382.4963   4.8796200e-17
       3384.5308   5.9760300e-17
       3386.5659   5.6409800e-17
       3388.6013   6.2298600e-17
       3390.6372   6.9390300e-17
       3392.6736   5.2182100e-17
       3394.7104   5.1249900e-17
       3396.7478   6.9447800e-17
       3398.7856   5.3764400e-17
       3400.8240   5.5905100e-17
       3402.8628   4.7516900e-17
       3404.9019   5.3237400e-17
       3406.9417   3.9117300e-17
       3408.9817   5.5111400e-17
       3411.0225   6.1876400e-17
       3413.0635   6.2365000e-17
       3415.1050   4.8356900e-17
       3417.1472   6.3011800e-17
       3419.1895   5.4775000e-17
       3421.2324   5.6688700e-17
       3423.2759   5.1428700e-17
       3425.3196   5.3821000e-17
       3427.3640   6.0605500e-17
       3429.4087   5.3328100e-17
       3431.4541   5.2130000e-17
       3433.4998   5.5562900e-17
       3435.5459   5.8193800e-17
       3437.5925   4.8258000e-17
       3439.6394   7.0255200e-17
       3441.6870   6.0417600e-17
       3443.7351   5.0943600e-17
       3445.7834   5.1853500e-17
       3447.8323   5.9307000e-17
       3449.8816   4.6155200e-17
       3451.9314   5.0843400e-17
       3453.9817   5.4958600e-17
       3456.0322   5.4733700e-17
       3458.0835   5.6845000e-17
       3460.1350   5.4431000e-17
       3462.1870   7.0913800e-17
       3464.2395   4.8409900e-17
       3466.2922   5.0646200e-17
       3468.3457   5.6717600e-17
       3470.3994   5.2847200e-17
       3472.4536   5.4215900e-17
       3474.5083   3.9271600e-17
       3476.5635   6.2873300e-17
       3478.6189   5.4879400e-17
       3480.6750   5.6460700e-17
       3482.7314   5.4803700e-17
       3484.7883   4.9295700e-17
       3486.8457   6.5811700e-17
       3488.9033   5.7918100e-17
       3490.9614   4.7518000e-17
       3493.0200   5.5938400e-17
       3495.0791   5.7520300e-17
       3497.1387   5.3687000e-17
       3499.1985   5.8908700e-17
       3501.2588   5.7479200e-17
       3503.3196   5.4935100e-17
       3505.3809   5.7503500e-17
       3507.4424   5.7803000e-17
       3509.5044   4.5588200e-17
       3511.5669   5.9047300e-17
       3513.6299   5.2111000e-17
       3515.6934   6.1495900e-17
       3517.7571   4.9461100e-17
       3519.8213   5.8295200e-17
       3521.8860   5.0629900e-17
       3523.9509   6.3400200e-17
       3526.0164   4.5162200e-17
       3528.0823   5.5607100e-17
       3530.1487   5.4289200e-17
       3532.2153   6.3587900e-17
       3534.2825   5.9298700e-17
       3536.3501   6.0587800e-17
       3538.4180   5.4931500e-17
       3540.4866   6.3599600e-17
       3542.5554   5.0417300e-17
       3544.6245   5.2625700e-17
       3546.6941   5.7182400e-17
       3548.7642   5.3313100e-17
       3550.8347   6.0544400e-17
       3552.9055   4.9195900e-17
       3554.9768   4.8315200e-17
       3557.0486   5.9706000e-17
       3559.1208   5.9030700e-17
       3561.1934   5.4210900e-17
       3563.2664   5.8894900e-17
       3565.3396   6.4681300e-17
       3567.4133   6.1299000e-17
       3569.4875   5.6919800e-17
       3571.5623   5.4843000e-17
       3573.6372   5.0864400e-17
       3575.7126   5.5423700e-17
       3577.7883   6.6888600e-17
       3579.8645   6.5447000e-17
       3581.9412   4.4445100e-17
       3584.0183   5.5719800e-17
       3586.0957   5.6610700e-17
       3588.1733   5.3515400e-17
       3590.2517   4.9591300e-17
       3592.3301   4.6568300e-17
       3594.4092   5.7612200e-17
       3596.4888   5.8682500e-17
       3598.5686   5.3151500e-17
       3600.6487   5.4969500e-17
       3602.7292   5.2809000e-17
       3604.8103   6.1908800e-17
       3606.8916   6.1563600e-17
       3608.9734   5.8648300e-17
       3611.0557   5.3233500e-17
       3613.1382   5.3574700e-17
       3615.2212   5.6771600e-17
       3617.3044   5.8362200e-17
       3619.3882   6.8482000e-17
       3621.4724   5.0389000e-17
       3623.5569   5.4582400e-17
       3625.6416   5.7597300e-17
       3627.7271   6.6003700e-17
       3629.8127   5.7593400e-17
       3631.8987   6.8713000e-17
       3633.9851   5.8496900e-17
       3636.0720   6.2512700e-17
       3638.1592   5.6552200e-17
       3640.2468   5.9972500e-17
       3642.3347   6.0910600e-17
       3644.4231   6.6908000e-17
       3646.5120   6.4800700e-17
       3648.6011   5.8681600e-17
       3650.6904   5.7671300e-17
       3652.7805   6.0934900e-17
       3654.8706   6.0713100e-17
       3656.9612   6.4027300e-17
       3659.0522   5.6237500e-17
       3661.1436   5.9541700e-17
       3663.2354   6.0040100e-17
       3665.3274   5.4979700e-17
       3667.4199   6.6626200e-17
       3669.5129   5.8701500e-17
       3671.6062   6.4871000e-17
       3673.6997   5.8160700e-17
       3675.7937   5.6278900e-17
       3677.8882   6.0929000e-17
       3679.9829   5.5933100e-17
       3682.0779   6.9524500e-17
       3684.1733   6.0269900e-17
       3686.2690   5.7193500e-17
       3688.3652   6.0463100e-17
       3690.4619   6.4432700e-17
       3692.5588   5.6925000e-17
       3694.6560   6.7276800e-17
       3696.7537   5.1685000e-17
       3698.8518   5.8281100e-17
       3700.9502   6.5100900e-17
       3703.0488   6.1975900e-17
       3705.1479   6.2686600e-17
       3707.2473   7.1405300e-17
       3709.3472   7.0962000e-17
       3711.4475   6.4479600e-17
       3713.5479   6.2372000e-17
       3715.6487   5.9457100e-17
       3717.7500   5.5319700e-17
       3719.8516   7.5421700e-17
       3721.9536   7.0908400e-17
       3724.0559   6.8768300e-17
       3726.1584   6.0781600e-17
       3728.2615   6.6816200e-17
       3730.3650   6.2503600e-17
       3732.4685   6.2671500e-17
       3734.5725   6.7008600e-17
       3736.6770   7.0100900e-17
       3738.7817   6.4806700e-17
       3740.8870   7.2463800e-17
       3742.9922   6.7469200e-17
       3745.0981   6.8600900e-17
       3747.2043   6.2336600e-17
       3749.3108   6.8603400e-17
       3751.4175   6.9850200e-17
       3753.5249   6.6022500e-17
       3755.6323   6.3561100e-17
       3757.7402   6.2257900e-17
       3759.8484   7.6853400e-17
       3761.9568   6.6565400e-17
       3764.0659   6.4261500e-17
       3766.1750   7.1366000e-17
       3768.2847   6.8346900e-17
       3770.3945   7.6553800e-17
       3772.5046   7.5651200e-17
       3774.6152   7.5381500e-17
       3776.7263   6.9821900e-17
       3778.8374   7.0214300e-17
       3780.9492   7.5278200e-17
       3783.0610   7.2115200e-17
       3785.1731   6.4340200e-17
       3787.2859   7.6563300e-17
       3789.3987   7.6781800e-17
       3791.5120   7.3349700e-17
       3793.6255   7.7758500e-17
       3795.7395   7.9333100e-17
       3797.8538   7.8483300e-17
       3799.9683   7.8078700e-17
       3802.0833   8.3737900e-17
       3804.1985   7.8374300e-17
       3806.3140   8.8446100e-17
       3808.4297   8.2094727e-17
       3810.5459   8.2641410e-17
       3812.6626   8.3188222e-17
       3814.7793   8.3735035e-17
       3816.8965   8.4281976e-17
       3819.0139   8.4828969e-17
       3821.1318   8.5376091e-17
       3823.2500   8.5923291e-17
       3825.3684   8.6470543e-17
       3827.4873   8.7017923e-17
       3829.6062   8.7565304e-17
       3831.7256   8.8112814e-17
       3833.8455   8.8660453e-17
       3835.9653   8.9208066e-17
       3838.0857   8.9755834e-17
       3840.2065   9.0303705e-17
       3842.3274   8.5703200e-17
       3844.4487   9.6794300e-17
       3846.5703   9.0137100e-17
       3848.6924   9.5011200e-17
       3850.8145   9.2714400e-17
       3852.9370   9.6120500e-17
       3855.0598   9.3338000e-17
       3857.1831   1.0117000e-16
       3859.3066   9.8821300e-17
       3861.4304   9.5214100e-17
       3863.5544   9.8040100e-17
       3865.6790   1.0503100e-16
       3867.8037   1.0114400e-16
       3869.9287   1.0593700e-16
       3872.0540   1.0521300e-16
       3874.1794   1.0289300e-16
       3876.3054   1.0513100e-16
       3878.4316   1.0821400e-16
       3880.5581   1.0758000e-16
       3882.6851   1.1589600e-16
       3884.8123   1.0608700e-16
       3886.9397   1.1062500e-16
       3889.0674   1.0408100e-16
       3891.1953   1.1894800e-16
       3893.3237   1.2234300e-16
       3895.4524   1.1213200e-16
       3897.5813   1.1287800e-16
       3899.7104   1.1862400e-16
       3901.8401   1.2280500e-16
       3903.9697   1.1854600e-16
       3906.0999   1.1711200e-16
       3908.2302   1.2362200e-16
       3910.3611   1.1629400e-16
       3912.4919   1.1961000e-16
       3914.6233   1.2095500e-16
       3916.7549   1.2445700e-16
       3918.8867   1.2477700e-16
       3921.0188   1.1979500e-16
       3923.1514   1.2053200e-16
       3925.2839   1.2144700e-16
       3927.4170   1.2917900e-16
       3929.5503   1.3120800e-16
       3931.6838   1.2531900e-16
       3933.8179   1.2252900e-16
       3935.9519   1.1923500e-16
       3938.0864   1.2927300e-16
       3940.2212   1.1527600e-16
       3942.3562   1.2709700e-16
       3944.4915   1.3058800e-16
       3946.6270   1.2607000e-16
       3948.7627   1.2690100e-16
       3950.8989   1.2649551e-16
       3953.0354   1.2664815e-16
       3955.1721   1.2680080e-16
       3957.3091   1.2695348e-16
       3959.4463   1.2710617e-16
       3961.5837   1.2725887e-16
       3963.7214   1.2741160e-16
       3965.8596   1.2756436e-16
       3967.9978   1.2771712e-16
       3970.1367   1.2786993e-16
       3972.2754   1.2802273e-16
       3974.4146   1.2817556e-16
       3976.5542   1.3168700e-16
       3978.6938   1.2232500e-16
       3980.8337   1.3040300e-16
       3982.9741   1.3462100e-16
       3985.1145   1.4172900e-16
       3987.2554   1.4086200e-16
       3989.3965   1.4664500e-16
       3991.5376   1.2967500e-16
       3993.6792   1.2236700e-16
       3995.8210   1.2450700e-16
       3997.9634   1.2125500e-16
       4000.1057   1.2665400e-16
       4002.2483   1.3052500e-16
       4004.3911   1.2855700e-16
       4006.5344   1.1958300e-16
       4008.6777   1.2645000e-16
       4010.8215   1.2283500e-16
       4012.9656   1.2116500e-16
       4015.1096   1.2726700e-16
       4017.2542   1.2968700e-16
       4019.3989   1.3105300e-16
       4021.5439   1.3178100e-16
       4023.6892   1.2974400e-16
       4025.8347   1.3524700e-16
       4027.9805   1.3956900e-16
       4030.1265   1.2291900e-16
       4032.2727   1.2133900e-16
       4034.4192   1.2518100e-16
       4036.5662   1.2961400e-16
       4038.7131   1.3048900e-16
       4040.8604   1.3200800e-16
       4043.0081   1.3094400e-16
       4045.1558   1.2784500e-16
       4047.3037   1.3299300e-16
       4049.4521   1.3042400e-16
       4051.6006   1.2843700e-16
       4053.7495   1.2810700e-16
       4055.8984   1.2248200e-16
       4058.0479   1.2145500e-16
       4060.1975   1.2141900e-16
       4062.3472   1.2175100e-16
       4064.4973   1.3000600e-16
       4066.6475   1.3700600e-16
       4068.7981   1.3533400e-16
       4070.9487   1.3073500e-16
       4073.0999   1.2607800e-16
       4075.2510   1.3423800e-16
       4077.4026   1.2428600e-16
       4079.5542   1.3581100e-16
       4081.7063   1.2575800e-16
       4083.8584   1.2657900e-16
       4086.0110   1.2628900e-16
       4088.1636   1.3094300e-16
       4090.3164   1.2608700e-16
       4092.4695   1.2443400e-16
       4094.6230   1.3529600e-16
       4096.7769   1.3012000e-16
       4098.9307   1.1927100e-16
       4101.0845   1.2894900e-16
       4103.2388   1.2512700e-16
       4105.3936   1.2105100e-16
       4107.5483   1.2673900e-16
       4109.7036   1.2279500e-16
       4111.8589   1.2394200e-16
       4114.0142   1.2213000e-16
       4116.1699   1.3128000e-16
       4118.3257   1.2750200e-16
       4120.4819   1.2792900e-16
       4122.6387   1.2579100e-16
       4124.7954   1.2004100e-16
       4126.9521   1.2844200e-16
       4129.1089   1.3231000e-16
       4131.2666   1.2731900e-16
       4133.4238   1.2182700e-16
       4135.5820   1.1976200e-16
       4137.7397   1.2243900e-16
       4139.8979   1.2264500e-16
       4142.0566   1.3381400e-16
       4144.2153   1.2046500e-16
       4146.3740   1.2582300e-16
       4148.5332   1.2357200e-16
       4150.6924   1.2852200e-16
       4152.8521   1.2069200e-16
       4155.0117   1.2807000e-16
       4157.1719   1.2302100e-16
       4159.3320   1.2348300e-16
       4161.4922   1.2317800e-16
       4163.6528   1.2815000e-16
       4165.8140   1.3120400e-16
       4167.9751   1.2310000e-16
       4170.1362   1.2210100e-16
       4172.2979   1.2313300e-16
       4174.4595   1.2782000e-16
       4176.6216   1.2199000e-16
       4178.7837   1.2579600e-16
       4180.9458   1.3353300e-16
       4183.1084   1.1746200e-16
       4185.2710   1.2678900e-16
       4187.4341   1.2121700e-16
       4189.5972   1.2481690e-16
       4191.7607   1.2481690e-16
       4193.9243   1.2481690e-16
       4196.0884   1.2481690e-16
       4198.2524   1.2481690e-16
       4200.4165   1.2481690e-16
       4202.5811   1.2481690e-16
       4204.7456   1.2481690e-16
       4206.9102   1.2481690e-16
       4209.0752   1.2481690e-16
       4211.2407   1.2481690e-16
       4213.4062   1.2481690e-16
       4215.5718   1.1929100e-16
       4217.7378   1.2997700e-16
       4219.9038   1.2165900e-16
       4222.0698   1.1933300e-16
       4224.2363   1.2605600e-16
       4226.4033   1.2685500e-16
       4228.5698   1.2350800e-16
       4230.7368   1.3054800e-16
       4232.9043   1.2846100e-16
       4235.0718   1.2731000e-16
       4237.2393   1.2608700e-16
       4239.4072   1.2936500e-16
       4241.5752   1.1932400e-16
       4243.7432   1.2534000e-16
       4245.9116   1.2359000e-16
       4248.0806   1.1988600e-16
       4250.2490   1.2798000e-16
       4252.4180   1.3016700e-16
       4254.5874   1.1554600e-16
       4256.7568   1.2630800e-16
       4258.9263   1.2984500e-16
       4261.0962   1.2818800e-16
       4263.2661   1.2702500e-16
       4265.4360   1.1930300e-16
       4267.6064   1.2698300e-16
       4269.7769   1.2517100e-16
       4271.9478   1.3138300e-16
       4274.1187   1.1903400e-16
       4276.2896   1.2733800e-16
       4278.4609   1.2808200e-16
       4280.6323   1.2266400e-16
       4282.8042   1.2529500e-16
       4284.9756   1.2860600e-16
       4287.1479   1.1670000e-16
       4289.3198   1.1601200e-16
       4291.4922   1.1844100e-16
       4293.6650   1.2661200e-16
       4295.8374   1.2507400e-16
       4298.0103   1.1869600e-16
       4300.1836   1.2258000e-16
       4302.3569   1.2408100e-16
       4304.5303   1.2210500e-16
       4306.7036   1.2211400e-16
       4308.8774   1.1889700e-16
       4311.0513   1.1734500e-16
       4313.2256   1.1827100e-16
       4315.3999   1.2551500e-16
       4317.5742   1.1688100e-16
       4319.7490   1.2189700e-16
       4321.9238   1.1689700e-16
       4324.0986   1.2256500e-16
       4326.2739   1.3297200e-16
       4328.4492   1.2226800e-16
       4330.6250   1.2351400e-16
       4332.8003   1.2381100e-16
       4334.9766   1.3011000e-16
       4337.1523   1.2380700e-16
       4339.3286   1.2096200e-16
       4341.5049   1.2222700e-16
       4343.6816   1.2774900e-16
       4345.8579   1.2540600e-16
       4348.0352   1.2825700e-16
       4350.2119   1.2679300e-16
       4352.3892   1.1831800e-16
       4354.5664   1.2972300e-16
       4356.7441   1.3078300e-16
       4358.9219   1.2759500e-16
       4361.0996   1.3524700e-16
       4363.2778   1.2464900e-16
       4365.4556   1.3792700e-16
       4367.6338   1.2484400e-16
       4369.8125   1.2877900e-16
       4371.9912   1.2832200e-16
       4374.1699   1.3547700e-16
       4376.3491   1.3251200e-16
       4378.5283   1.2447400e-16
       4380.7075   1.3569700e-16
       4382.8867   1.3356900e-16
       4385.0664   1.3238800e-16
       4387.2461   1.3393600e-16
       4389.4258   1.3042000e-16
       4391.6060   1.3796800e-16
       4393.7861   1.4662000e-16
       4395.9668   1.3792900e-16
       4398.1470   1.3583700e-16
       4400.3276   1.3660800e-16
       4402.5088   1.3836500e-16
       4404.6895   1.4347200e-16
       4406.8706   1.3758500e-16
       4409.0518   1.4884700e-16
       4411.2334   1.4549600e-16
       4413.4150   1.4282500e-16
       4415.5967   1.4677000e-16
       4417.7788   1.4824400e-16
       4419.9604   1.4874700e-16
       4422.1426   1.4409800e-16
       4424.3252   1.4371500e-16
       4426.5078   1.4663700e-16
       4428.6904   1.4280200e-16
       4430.8730   1.4561500e-16
       4433.0557   1.5387800e-16
       4435.2388   1.4263900e-16
       4437.4219   1.4632400e-16
       4439.6055   1.4937506e-16
       4441.7886   1.5042490e-16
       4443.9722   1.5147498e-16
       4446.1562   1.5252525e-16
       4448.3403   1.5357557e-16
       4450.5239   1.5462565e-16
       4452.7085   1.5567621e-16
       4454.8926   1.5672653e-16
       4457.0771   1.5777704e-16
       4459.2617   1.5882760e-16
       4461.4463   1.6277000e-16
       4463.6313   1.6249500e-16
       4465.8164   1.6107400e-16
       4468.0015   1.6659100e-16
       4470.1865   1.6089300e-16
       4472.3721   1.6664900e-16
       4474.5576   1.6053500e-16
       4476.7432   1.7091200e-16
       4478.9292   1.6844900e-16
       4481.1147   1.6330000e-16
       4483.3008   1.6778300e-16
       4485.4873   1.7344500e-16
       4487.6733   1.6370000e-16
       4489.8599   1.7284500e-16
       4492.0464   1.6648500e-16
       4494.2334   1.7244400e-16
       4496.4199   1.7142400e-16
       4498.6069   1.7212400e-16
       4500.7944   1.7455500e-16
       4502.9814   1.7769700e-16
       4505.1689   1.7321800e-16
       4507.3560   1.7509000e-16
       4509.5439   1.8028200e-16
       4511.7314   1.8435800e-16
       4513.9194   1.8025800e-16
       4516.1074   1.7855300e-16
       4518.2954   1.8070200e-16
       4520.4839   1.7175900e-16
       4522.6719   1.8269400e-16
       4524.8608   1.8463000e-16
       4527.0493   1.8463600e-16
       4529.2378   1.8667800e-16
       4531.4268   1.8341300e-16
       4533.6157   1.8727000e-16
       4535.8047   1.7931800e-16
       4537.9941   1.8447000e-16
       4540.1831   1.7632100e-16
       4542.3726   1.8349100e-16
       4544.5620   1.8200500e-16
       4546.7520   1.7973200e-16
       4548.9414   1.8583100e-16
       4551.1313   1.8739100e-16
       4553.3213   1.8911400e-16
       4555.5117   1.8845200e-16
       4557.7017   1.8378600e-16
       4559.8921   1.8559400e-16
       4562.0825   1.8085300e-16
       4564.2734   1.9285200e-16
       4566.4639   1.9421600e-16
       4568.6548   1.8455300e-16
       4570.8457   1.9568500e-16
       4573.0366   1.9622000e-16
       4575.2280   1.8406100e-16
       4577.4189   1.8904600e-16
       4579.6104   1.9168000e-16
       4581.8018   1.9513700e-16
       4583.9932   1.8671100e-16
       4586.1851   1.9267600e-16
       4588.3770   1.9779500e-16
       4590.5688   1.9737300e-16
       4592.7607   1.9497400e-16
       4594.9531   1.8813300e-16
       4597.1450   1.9726500e-16
       4599.3374   1.9725200e-16
       4601.5298   2.0278800e-16
       4603.7222   1.9283200e-16
       4605.9150   1.8891200e-16
       4608.1079   1.9646300e-16
       4610.3003   1.9165600e-16
       4612.4932   1.9572300e-16
       4614.6865   1.9540600e-16
       4616.8794   2.0058900e-16
       4619.0728   1.8479200e-16
       4621.2661   1.8924400e-16
       4623.4595   1.9162700e-16
       4625.6533   1.8859100e-16
       4627.8467   1.8622800e-16
       4630.0405   1.8891300e-16
       4632.2344   1.9676000e-16
       4634.4282   1.9272100e-16
       4636.6221   1.9653700e-16
       4638.8164   1.9175500e-16
       4641.0107   1.9466800e-16
       4643.2046   1.9804100e-16
       4645.3989   1.9797500e-16
       4647.5938   1.9271000e-16
       4649.7881   1.9046800e-16
       4651.9829   1.8754900e-16
       4654.1777   1.8569000e-16
       4656.3726   1.9473700e-16
       4658.5674   2.0074400e-16
       4660.7627   1.8865700e-16
       4662.9575   1.8214000e-16
       4665.1528   1.9064800e-16
       4667.3481   1.8973600e-16
       4669.5435   1.9014800e-16
       4671.7388   1.8798900e-16
       4673.9346   1.8123900e-16
       4676.1304   1.8473300e-16
       4678.3262   1.8210900e-16
       4680.5220   1.9345000e-16
       4682.7178   1.7745300e-16
       4684.9136   1.8398800e-16
       4687.1099   1.8537800e-16
       4689.3062   1.8208700e-16
       4691.5024   1.7743000e-16
       4693.6987   1.8300400e-16
       4695.8950   1.7940900e-16
       4698.0913   1.7954000e-16
       4700.2881   1.8519900e-16
       4702.4849   1.7295500e-16
       4704.6816   1.7902000e-16
       4706.8784   1.8583300e-16
       4709.0752   1.8305400e-16
       4711.2720   1.7131800e-16
       4713.4692   1.8904700e-16
       4715.6665   1.8257800e-16
       4717.8638   1.8082200e-16
       4720.0610   1.7988500e-16
       4722.2583   1.7341800e-16
       4724.4556   1.7984300e-16
       4726.6533   1.7956000e-16
       4728.8511   1.7987800e-16
       4731.0488   1.8349800e-16
       4733.2466   1.7717500e-16
       4735.4443   1.7972100e-16
       4737.6421   1.7141000e-16
       4739.8403   1.7828200e-16
       4742.0381   1.8164300e-16
       4744.2363   1.8774800e-16
       4746.4346   1.8316600e-16
       4748.6328   1.7999500e-16
       4750.8311   1.8410500e-16
       4753.0298   1.8184800e-16
       4755.2280   1.7349400e-16
       4757.4268   1.7435000e-16
       4759.6255   1.7903600e-16
       4761.8242   1.7684400e-16
       4764.0229   1.7710700e-16
       4766.2217   1.7821900e-16
       4768.4204   1.8139700e-16
       4770.6196   1.8014100e-16
       4772.8184   1.8244700e-16
       4775.0176   1.7980300e-16
       4777.2168   1.8272100e-16
       4779.4160   1.7986300e-16
       4781.6152   1.7593300e-16
       4783.8149   1.8515100e-16
       4786.0142   1.7637700e-16
       4788.2139   1.7986800e-16
       4790.4131   1.8557100e-16
       4792.6128   1.8619400e-16
       4794.8125   1.8144300e-16
       4797.0122   1.7991200e-16
       4799.2119   1.7941800e-16
       4801.4121   1.7773400e-16
       4803.6118   1.8414000e-16
       4805.8120   1.7484500e-16
       4808.0117   1.7808900e-16
       4810.2119   1.7736600e-16
       4812.4121   1.8343200e-16
       4814.6123   1.8984100e-16
       4816.8125   1.8431600e-16
       4819.0132   1.7851900e-16
       4821.2134   1.8802500e-16
       4823.4141   1.7708000e-16
       4825.6143   1.8400000e-16
       4827.8149   1.8733100e-16
       4830.0156   1.8450600e-16
       4832.2163   1.8464800e-16
       4834.4170   1.9248400e-16
       4836.6177   1.8863600e-16
       4838.8188   1.8309600e-16
       4841.0195   1.8678300e-16
       4843.2207   1.9194600e-16
       4845.4214   1.8633700e-16
       4847.6226   1.9196300e-16
       4849.8237   1.8800700e-16
       4852.0249   1.8949300e-16
       4854.2261   1.9750600e-16
       4856.4272   1.9232900e-16
       4858.6289   1.8053600e-16
       4860.8301   1.8958300e-16
       4863.0317   1.8398300e-16
       4865.2329   1.9091600e-16
       4867.4346   1.9059000e-16
       4869.6362   1.9170900e-16
       4871.8374   1.8423700e-16
       4874.0391   1.8195100e-16
       4876.2412   1.9240800e-16
       4878.4429   1.8643700e-16
       4880.6445   1.7977800e-16
       4882.8462   1.8911200e-16
       4885.0483   1.7922200e-16
       4887.2500   1.8923600e-16
       4889.4521   1.8369800e-16
       4891.6543   1.8178800e-16
       4893.8560   1.8249900e-16
       4896.0581   1.7887000e-16
       4898.2607   1.7519900e-16
       4900.4629   1.8209200e-16
       4902.6650   1.7181900e-16
       4904.8672   1.7805300e-16
       4907.0693   1.6918800e-16
       4909.2720   1.7519300e-16
       4911.4741   1.6682800e-16
       4913.6768   1.6891300e-16
       4915.8789   1.7761800e-16
       4918.0815   1.6917200e-16
       4920.2842   1.7307800e-16
       4922.4868   1.6844000e-16
       4924.6895   1.6753000e-16
       4926.8921   1.6196300e-16
       4929.0947   1.6528500e-16
       4931.2974   1.7188600e-16
       4933.5005   1.6300600e-16
       4935.7031   1.7016000e-16
       4937.9058   1.7062700e-16
       4940.1089   1.6686600e-16
       4942.3115   1.6744700e-16
       4944.5146   1.6502800e-16
       4946.7178   1.6582400e-16
       4948.9209   1.6971700e-16
       4951.1235   1.6513300e-16
       4953.3267   1.7047100e-16
       4955.5298   1.7080800e-16
       4957.7329   1.6122500e-16
       4959.9360   1.6928100e-16
       4962.1392   1.6300700e-16
       4964.3428   1.6436500e-16
       4966.5459   1.6168100e-16
       4968.7490   1.6566500e-16
       4970.9526   1.6597900e-16
       4973.1558   1.6260314e-16
       4975.3594   1.6260314e-16
       4977.5625   1.6260314e-16
       4979.7661   1.6260314e-16
       4981.9697   1.6260314e-16
       4984.1733   1.6260314e-16
       4986.3765   1.6260314e-16
       4988.5801   1.6260314e-16
       4990.7837   1.6260314e-16
       4992.9873   1.6260314e-16
       4995.1909   1.6260314e-16
       4997.3945   1.6260314e-16
       4999.5986   1.6186023e-16
       5001.8022   1.6198064e-16
       5004.0059   1.6210107e-16
       5006.2095   1.6222149e-16
       5008.4131   1.6234191e-16
       5010.6172   1.6246235e-16
       5012.8208   1.6258277e-16
       5015.0249   1.6366300e-16
       5017.2285   1.6411900e-16
       5019.4326   1.6725000e-16
       5021.6367   1.6894900e-16
       5023.8403   1.6650600e-16
       5026.0444   1.6507400e-16
       5028.2485   1.6422800e-16
       5030.4521   1.6502300e-16
       5032.6562   1.6503500e-16
       5034.8604   1.6294800e-16
       5037.0645   1.6637000e-16
       5039.2686   1.6840500e-16
       5041.4727   1.6764300e-16
       5043.6768   1.6682600e-16
       5045.8809   1.7194300e-16
       5048.0850   1.6697800e-16
       5050.2891   1.6898700e-16
       5052.4932   1.6735300e-16
       5054.6973   1.6816300e-16
       5056.9014   1.7312300e-16
       5059.1060   1.6983200e-16
       5061.3101   1.6775500e-16
       5063.5142   1.6259200e-16
       5065.7183   1.7213800e-16
       5067.9229   1.7204000e-16
       5070.1270   1.7266803e-16
       5072.3315   1.7324193e-16
       5074.5356   1.7381573e-16
       5076.7397   1.7438953e-16
       5078.9443   1.7496345e-16
       5081.1484   1.7553725e-16
       5083.3530   1.7611118e-16
       5085.5571   1.7668498e-16
       5087.7617   1.7725891e-16
       5089.9663   1.7783283e-16
       5092.1704   1.7840663e-16
       5094.3750   1.7898056e-16
       5096.5791   1.8101200e-16
       5098.7837   1.7647300e-16
       5100.9883   1.7830100e-16
       5103.1924   1.8480500e-16
       5105.3970   1.7903300e-16
       5107.6016   1.8215600e-16
       5109.8057   1.8561000e-16
       5112.0103   1.8258000e-16
       5114.2148   1.7996100e-16
       5116.4194   1.8791800e-16
       5118.6240   1.9020200e-16
       5120.8281   1.8917400e-16
       5123.0327   1.8865605e-16
       5125.2373   1.8911239e-16
       5127.4419   1.8956874e-16
       5129.6460   1.9002498e-16
       5131.8506   1.9048133e-16
       5134.0552   1.9093767e-16
       5136.2598   1.9139402e-16
       5138.4644   1.9185036e-16
       5140.6689   1.9230669e-16
       5142.8735   1.9276303e-16
       5145.0781   1.9321938e-16
       5147.2822   1.9367562e-16
       5149.4868   1.9748100e-16
       5151.6914   1.9371100e-16
       5153.8960   1.8588400e-16
       5156.1006   2.0027900e-16
       5158.3052   2.0089500e-16
       5160.5093   1.9623800e-16
       5162.7139   1.9186200e-16
       5164.9185   1.9700100e-16
       5167.1230   2.0079800e-16
       5169.3276   1.9767100e-16
       5171.5322   2.0355200e-16
       5173.7368   1.9702300e-16
       5175.9414   2.0852700e-16
       5178.1455   1.9892400e-16
       5180.3501   1.9245300e-16
       5182.5547   1.9829100e-16
       5184.7593   1.9948100e-16
       5186.9639   2.0244800e-16
       5189.1680   2.0694200e-16
       5191.3726   1.9956600e-16
       5193.5771   2.0689000e-16
       5195.7817   2.0633800e-16
       5197.9863   2.0323600e-16
       5200.1904   2.1047900e-16
       5202.3950   2.0681100e-16
       5204.5996   2.0194300e-16
       5206.8037   2.0416300e-16
       5209.0083   2.1409900e-16
       5211.2129   2.0760400e-16
       5213.4170   2.0763800e-16
       5215.6216   2.1585500e-16
       5217.8262   2.1322900e-16
       5220.0303   2.1684200e-16
       5222.2349   2.1659700e-16
       5224.4390   2.2675600e-16
       5226.6436   2.2002500e-16
       5228.8477   2.2054700e-16
       5231.0522   2.2370700e-16
       5233.2568   2.2347900e-16
       5235.4609   2.1312100e-16
       5237.6650   2.2932500e-16
       5239.8696   2.2928200e-16
       5242.0737   2.1916700e-16
       5244.2783   2.3576700e-16
       5246.4824   2.2369200e-16
       5248.6865   2.2670300e-16
       5250.8911   2.1127800e-16
       5253.0952   2.2333600e-16
       5255.2993   2.1958200e-16
       5257.5034   2.2827600e-16
       5259.7075   2.1848200e-16
       5261.9121   2.2981000e-16
       5264.1162   2.2309600e-16
       5266.3203   2.2208400e-16
       5268.5244   2.1920300e-16
       5270.7285   2.2497600e-16
       5272.9326   2.2960300e-16
       5275.1367   2.2532200e-16
       5277.3408   2.2807100e-16
       5279.5449   2.3658900e-16
       5281.7485   2.2426800e-16
       5283.9526   2.2652000e-16
       5286.1567   2.3270600e-16
       5288.3608   2.3184000e-16
       5290.5649   2.3185800e-16
       5292.7686   2.2788600e-16
       5294.9727   2.3189100e-16
       5297.1763   2.2906200e-16
       5299.3804   2.3636500e-16
       5301.5840   2.3706300e-16
       5303.7881   2.2277000e-16
       5305.9917   2.3655900e-16
       5308.1958   2.3426700e-16
       5310.3994   2.3254400e-16
       5312.6035   2.3520300e-16
       5314.8071   2.4517500e-16
       5317.0107   2.3757000e-16
       5319.2144   2.2725200e-16
       5321.4180   2.4228100e-16
       5323.6216   2.4983800e-16
       5325.8252   2.3996500e-16
       5328.0293   2.4511500e-16
       5330.2329   2.4294000e-16
       5332.4360   2.5109900e-16
       5334.6396   2.4335300e-16
       5336.8433   2.4724000e-16
       5339.0469   2.4129500e-16
       5341.2505   2.4477400e-16
       5343.4536   2.4914300e-16
       5345.6572   2.4583400e-16
       5347.8608   2.4302200e-16
       5350.0640   2.5214500e-16
       5352.2671   2.5109000e-16
       5354.4707   2.5126300e-16
       5356.6738   2.4725200e-16
       5358.8774   2.6333500e-16
       5361.0806   2.5440200e-16
       5363.2837   2.4287600e-16
       5365.4868   2.5060300e-16
       5367.6899   2.5646600e-16
       5369.8931   2.6627900e-16
       5372.0962   2.5331700e-16
       5374.2993   2.6233500e-16
       5376.5024   2.5863200e-16
       5378.7056   2.5841100e-16
       5380.9087   2.6130500e-16
       5383.1118   2.5451800e-16
       5385.3145   2.5885800e-16
       5387.5176   2.5555400e-16
       5389.7202   2.6309900e-16
       5391.9233   2.6647100e-16
       5394.1260   2.6002300e-16
       5396.3291   2.7076300e-16
       5398.5317   2.6746500e-16
       5400.7344   2.6656800e-16
       5402.9370   2.6841100e-16
       5405.1396   2.7387000e-16
       5407.3423   2.5647700e-16
       5409.5449   2.6427300e-16
       5411.7476   2.6055700e-16
       5413.9502   2.6496000e-16
       5416.1528   2.7048600e-16
       5418.3550   2.6933100e-16
       5420.5576   2.7790600e-16
       5422.7603   2.6979400e-16
       5424.9624   2.7834600e-16
       5427.1650   2.7572500e-16
       5429.3672   2.7561300e-16
       5431.5693   2.6365800e-16
       5433.7720   2.7121800e-16
       5435.9741   2.8098100e-16
       5438.1763   2.7996500e-16
       5440.3784   2.7399800e-16
       5442.5806   2.6761400e-16
       5444.7827   2.7233500e-16
       5446.9849   2.7667000e-16
       5449.1865   2.8604400e-16
       5451.3887   2.7802400e-16
       5453.5908   2.7829400e-16
       5455.7925   2.7701500e-16
       5457.9946   2.7662200e-16
       5460.1963   2.8750700e-16
       5462.3979   2.8222700e-16
       5464.6001   2.8041100e-16
       5466.8018   2.8704200e-16
       5469.0034   2.8509000e-16
       5471.2051   2.9045500e-16
       5473.4067   2.9031500e-16
       5475.6084   2.8456000e-16
       5477.8096   2.9367600e-16
       5480.0112   2.8603200e-16
       5482.2129   2.9505800e-16
       5484.4141   2.8792800e-16
       5486.6157   2.8817300e-16
       5488.8169   2.9765800e-16
       5491.0181   2.9318900e-16
       5493.2197   2.9548500e-16
       5495.4209   2.9463600e-16
       5497.6221   2.8039500e-16
       5499.8232   3.0246400e-16
       5502.0244   3.0582600e-16
       5504.2256   2.9251800e-16
       5506.4263   2.9110800e-16
       5508.6274   3.0340000e-16
       5510.8286   2.9647400e-16
       5513.0293   3.0089900e-16
       5515.2300   3.0597600e-16
       5517.4312   2.9826800e-16
       5519.6318   2.9485200e-16
       5521.8325   2.9129800e-16
       5524.0332   3.0095000e-16
       5526.2339   2.9358300e-16
       5528.4346   2.8889300e-16
       5530.6353   3.0170200e-16
       5532.8359   2.9854200e-16
       5535.0361   2.9828000e-16
       5537.2368   2.8725600e-16
       5539.4370   2.8575700e-16
       5541.6377   2.9293000e-16
       5543.8379   2.8694900e-16
       5546.0381   2.8971100e-16
       5548.2383   2.9028600e-16
       5550.4385   2.6851600e-16
       5552.6387   2.9476900e-16
       5554.8389   2.9135000e-16
       5557.0391   2.9861200e-16
       5559.2388   2.8682700e-16
       5561.4390   2.8936300e-16
       5563.6387   2.8384100e-16
       5565.8389   2.7578500e-16
       5568.0386   2.7500200e-16
       5570.2383   2.9095100e-16
       5572.4380   2.7529600e-16
       5574.6377   2.6772300e-16
       5576.8374   2.8125200e-16
       5579.0371   2.7639500e-16
       5581.2368   2.9272800e-16
       5583.4365   2.7954500e-16
       5585.6357   2.7537600e-16
       5587.8350   2.7262200e-16
       5590.0347   2.6579400e-16
       5592.2339   2.7540700e-16
       5594.4331   2.6557400e-16
       5596.6323   2.7265800e-16
       5598.8315   2.6820500e-16
       5601.0308   2.6193000e-16
       5603.2300   2.6560900e-16
       5605.4292   2.7157800e-16
       5607.6279   2.7504300e-16
       5609.8271   2.7545700e-16
       5612.0259   2.6798000e-16
       5614.2246   2.6666200e-16
       5616.4238   2.7427600e-16
       5618.6226   2.7058000e-16
       5620.8213   2.8052400e-16
       5623.0200   2.6467400e-16
       5625.2183   2.7491000e-16
       5627.4170   2.6324100e-16
       5629.6157   2.7460500e-16
       5631.8140   2.6008900e-16
       5634.0127   2.6116500e-16
       5636.2109   2.5631800e-16
       5638.4092   2.5993600e-16
       5640.6074   2.6433400e-16
       5642.8057   2.4754900e-16
       5645.0039   2.7332200e-16
       5647.2021   2.6632100e-16
       5649.3999   2.6381900e-16
       5651.5981   2.5706600e-16
       5653.7959   2.5912700e-16
       5655.9941   2.5913900e-16
       5658.1919   2.5099700e-16
       5660.3896   2.3303200e-16
       5662.5874   2.5457700e-16
       5664.7852   2.4135800e-16
       5665.8442   2.3354200e-16
       5666.9873   2.6248800e-16
       5668.1304   2.5183900e-16
       5669.2734   2.4760300e-16
       5670.4165   2.5897400e-16
       5671.5596   2.5343300e-16
       5672.7031   2.4637600e-16
       5673.8462   2.7320600e-16
       5674.9897   2.6158100e-16
       5676.1328   2.5886400e-16
       5677.2764   2.7310900e-16
       5678.4199   2.5446700e-16
       5679.5635   2.5900900e-16
       5680.7070   2.3175200e-16
       5681.8511   2.3601500e-16
       5682.9946   2.5326100e-16
       5684.1387   2.4384000e-16
       5685.2822   2.6998200e-16
       5686.4263   2.5212800e-16
       5687.5703   2.6445900e-16
       5688.7139   2.4802600e-16
       5689.8584   2.5266000e-16
       5691.0024   2.5596300e-16
       5692.1465   2.3573400e-16
       5693.2905   2.5076800e-16
       5694.4351   2.4377100e-16
       5695.5791   2.5422300e-16
       5696.7236   2.4625000e-16
       5697.8682   2.5134200e-16
       5699.0127   2.4891600e-16
       5700.1572   2.4314600e-16
       5701.3018   2.4317100e-16
       5702.4463   2.5456300e-16
       5703.5908   2.3840400e-16
       5704.7358   2.3414700e-16
       5705.8804   2.4132300e-16
       5707.0254   2.4553600e-16
       5708.1699   2.5132600e-16
       5709.3149   2.5875800e-16
       5710.4600   2.4883400e-16
       5711.6050   2.3744000e-16
       5712.7500   2.4712100e-16
       5713.8955   2.4022600e-16
       5715.0405   2.4655400e-16
       5716.1855   2.3680700e-16
       5717.3311   2.3802100e-16
       5718.4766   2.4134600e-16
       5719.6216   2.4183800e-16
       5720.7671   2.3600500e-16
       5721.9126   2.3661000e-16
       5723.0581   2.3712200e-16
       5724.2036   2.5077400e-16
       5725.3496   2.4188600e-16
       5726.4951   2.5188600e-16
       5727.6411   2.3559200e-16
       5728.7866   2.3714000e-16
       5729.9326   2.4638300e-16
       5731.0786   2.4151500e-16
       5732.2246   2.4667300e-16
       5733.3706   2.5315200e-16
       5734.5166   2.4808000e-16
       5735.6626   2.4936400e-16
       5736.8086   2.3425300e-16
       5737.9551   2.4238700e-16
       5739.1011   2.4964400e-16
       5740.2476   2.3318400e-16
       5741.3940   2.2351400e-16
       5742.5400   2.4513200e-16
       5743.6865   2.3965300e-16
       5744.8330   2.2362400e-16
       5745.9795   2.4893900e-16
       5747.1265   2.4579500e-16
       5748.2729   2.3035500e-16
       5749.4199   2.4320900e-16
       5750.5664   2.4773400e-16
       5751.7134   2.3397600e-16
       5752.8599   2.4456700e-16
       5754.0068   2.4965700e-16
       5755.1538   2.5304800e-16
       5756.3008   2.4392300e-16
       5757.4478   2.5303300e-16
       5758.5952   2.3899400e-16
       5759.7422   2.4049000e-16
       5760.8892   2.2810700e-16
       5762.0366   2.3935200e-16
       5763.1841   2.3763300e-16
       5764.3311   2.5075900e-16
       5765.4785   2.3754000e-16
       5766.6260   2.3160500e-16
       5767.7734   2.5164500e-16
       5768.9209   2.4376900e-16
       5770.0688   2.2600900e-16
       5771.2163   2.4705300e-16
       5772.3638   2.2669500e-16
       5773.5117   2.3813800e-16
       5774.6597   2.3454400e-16
       5775.8071   2.3928000e-16
       5776.9551   2.3400000e-16
       5778.1030   2.2963300e-16
       5779.2510   2.3276100e-16
       5780.3989   2.3216200e-16
       5781.5474   2.2382100e-16
       5782.6953   2.2434600e-16
       5783.8433   2.4212000e-16
       5784.9917   2.2610800e-16
       5786.1401   2.2577300e-16
       5787.2881   2.3128600e-16
       5788.4365   2.3477700e-16
       5789.5850   2.2209000e-16
       5790.7334   2.3303700e-16
       5791.8818   2.2807100e-16
       5793.0303   2.3155400e-16
       5794.1792   2.3313200e-16
       5795.3276   2.2361500e-16
       5796.4766   2.2134600e-16
       5797.6250   2.1548000e-16
       5798.7739   2.1970300e-16
       5799.9229   2.2848200e-16
       5801.0718   2.1521600e-16
       5802.2207   2.1870800e-16
       5803.3696   2.1672000e-16
       5804.5186   2.2278900e-16
       5805.6675   2.1451400e-16
       5806.8169   2.1672600e-16
       5807.9658   2.0540100e-16
       5809.1152   2.1723500e-16
       5810.2642   2.0634900e-16
       5811.4136   2.2748200e-16
       5812.5630   2.1006400e-16
       5813.7124   2.1510900e-16
       5814.8618   2.2719100e-16
       5816.0117   2.1769500e-16
       5817.1611   2.1480000e-16
       5818.3105   2.1479800e-16
       5819.4600   2.1406300e-16
       5820.6099   2.1549400e-16
       5821.7598   2.1890100e-16
       5822.9092   2.1750600e-16
       5824.0591   2.1423300e-16
       5825.2090   2.0878900e-16
       5826.3589   2.0694600e-16
       5827.5088   1.9707000e-16
       5828.6592   2.0132000e-16
       5829.8091   2.0507200e-16
       5830.9590   2.1548100e-16
       5832.1094   2.1737500e-16
       5833.2593   2.1064500e-16
       5834.4097   2.1300500e-16
       5835.5601   2.1335400e-16
       5836.7104   2.2010600e-16
       5837.8608   2.0466000e-16
       5839.0112   2.0241900e-16
       5840.1616   2.1327600e-16
       5841.3120   2.0700100e-16
       5842.4629   2.0472900e-16
       5843.6133   2.1477900e-16
       5844.7642   2.0867100e-16
       5845.9150   2.0532800e-16
       5847.0654   2.1299300e-16
       5848.2163   2.1382700e-16
       5849.3672   2.0689500e-16
       5850.5181   2.1711100e-16
       5851.6689   2.1245700e-16
       5852.8198   2.0363500e-16
       5853.9712   2.1912300e-16
       5855.1221   2.2069200e-16
       5856.2734   2.1635900e-16
       5857.4243   2.2214500e-16
       5858.5757   2.1168500e-16
       5859.7266   2.1205500e-16
       5860.8779   2.1427400e-16
       5862.0293   2.1999500e-16
       5863.1807   2.1868800e-16
       5864.3325   2.1999600e-16
       5865.4839   2.1628800e-16
       5866.6353   1.9928600e-16
       5867.7866   2.1162900e-16
       5868.9385   2.1444400e-16
       5870.0903   1.9926600e-16
       5871.2417   2.2068300e-16
       5872.3936   2.1246700e-16
       5873.5454   2.2191300e-16
       5874.6973   2.1296000e-16
       5875.8491   2.1924100e-16
       5877.0010   2.0799900e-16
       5878.1528   2.2240100e-16
       5879.3052   2.1490500e-16
       5880.4570   2.1192200e-16
       5881.6094   2.1277300e-16
       5882.7612   2.1435100e-16
       5883.9136   2.2151800e-16
       5885.0659   2.2447900e-16
       5886.2183   1.9641900e-16
       5887.3706   2.0823000e-16
       5888.5229   2.0896500e-16
       5889.6753   2.1193500e-16
       5890.8276   2.1665500e-16
       5891.9800   2.1085700e-16
       5893.1328   2.0646700e-16
       5894.2852   2.0825000e-16
       5895.4380   2.1501300e-16
       5896.5908   2.0119600e-16
       5897.7432   2.0603300e-16
       5898.8960   2.1659900e-16
       5900.0488   2.0622400e-16
       5901.2017   2.0496700e-16
       5902.3550   2.0166000e-16
       5903.5078   2.0725200e-16
       5904.6606   2.1751900e-16
       5905.8140   2.0248100e-16
       5906.9668   2.2229200e-16
       5908.1201   2.1340500e-16
       5909.2734   2.0474400e-16
       5910.4263   2.0733900e-16
       5911.5796   2.0446400e-16
       5912.7329   2.0260000e-16
       5913.8862   2.0263100e-16
       5915.0396   2.0684400e-16
       5916.1934   2.0740100e-16
       5917.3467   2.2145200e-16
       5918.5000   2.1469100e-16
       5919.6538   2.1015900e-16
       5920.8076   2.1875900e-16
       5921.9609   2.1251400e-16
       5923.1147   2.0928800e-16
       5924.2686   1.9714300e-16
       5925.4224   2.0764600e-16
       5926.5762   2.1321600e-16
       5927.7300   2.1724900e-16
       5928.8838   2.0339000e-16
       5930.0376   2.0798700e-16
       5931.1919   2.0847100e-16
       5932.3457   2.0901200e-16
       5933.5000   2.1143400e-16
       5934.6543   2.0714100e-16
       5935.8081   2.0988500e-16
       5936.9624   2.1404400e-16
       5938.1167   2.1002700e-16
       5939.2710   2.1329600e-16
       5940.4253   1.9516900e-16
       5941.5796   2.0856400e-16
       5942.7344   2.2204100e-16
       5943.8887   2.0234500e-16
       5945.0430   2.0567400e-16
       5946.1978   2.1905800e-16
       5947.3525   2.1483400e-16
       5948.5068   2.1342700e-16
       5949.6616   2.1500300e-16
       5950.8164   2.0765900e-16
       5951.9712   2.0961000e-16
       5953.1260   2.1408200e-16
       5954.2808   2.1381700e-16
       5955.4360   2.0539600e-16
       5956.5908   2.0164100e-16
       5957.7456   2.1490600e-16
       5958.9009   2.1063800e-16
       5960.0557   2.0733500e-16
       5961.2109   2.0934700e-16
       5962.3662   2.1982900e-16
       5963.5215   2.1365300e-16
       5964.6763   2.1085400e-16
       5965.8320   2.0516000e-16
       5966.9873   2.1756400e-16
       5968.1426   2.0985500e-16
       5969.2979   2.0824900e-16
       5970.4536   2.1058000e-16
       5971.6089   2.0942600e-16
       5972.7642   2.1625500e-16
       5973.9199   2.0643600e-16
       5975.0757   2.0446000e-16
       5976.2314   2.0687600e-16
       5977.3872   1.9725200e-16
       5978.5425   2.1345900e-16
       5979.6987   2.0756000e-16
       5980.8545   2.1078800e-16
       5982.0103   2.1184900e-16
       5983.1660   2.0759500e-16
       5984.3223   2.1219000e-16
       5985.4780   2.1166800e-16
       5986.6343   2.0278100e-16
       5987.7900   2.0724800e-16
       5988.9463   2.0418900e-16
       5990.1025   2.0969700e-16
       5991.2588   2.1373500e-16
       5992.4150   2.0729400e-16
       5993.5713   2.1182600e-16
       5994.7275   2.1169400e-16
       5995.8838   2.1165600e-16
       5997.0405   2.1059100e-16
       5998.1968   2.0969800e-16
       5999.3535   2.2533000e-16
       6000.5098   2.2269100e-16
       6001.6665   2.1097200e-16
       6002.8232   2.0572700e-16
       6003.9795   2.1461800e-16
       6005.1362   2.2016200e-16
       6006.2930   2.0997200e-16
       6007.4502   2.0163400e-16
       6008.6069   2.0959400e-16
       6009.7637   2.1643200e-16
       6010.9204   2.0661200e-16
       6012.0776   2.0696400e-16
       6013.2344   2.1431200e-16
       6014.3916   2.1130600e-16
       6015.5488   2.1176000e-16
       6016.7056   2.0910600e-16
       6017.8628   2.1550000e-16
       6019.0200   2.1862400e-16
       6020.1772   2.1167900e-16
       6021.3345   2.1990300e-16
       6022.4917   2.1020500e-16
       6023.6494   2.1452800e-16
       6024.8066   2.2281500e-16
       6025.9639   2.1503900e-16
       6027.1216   2.1292000e-16
       6028.2793   2.0136000e-16
       6029.4365   2.1279000e-16
       6030.5942   2.0131900e-16
       6031.7520   2.0025200e-16
       6032.9097   2.1081000e-16
       6034.0674   2.0499100e-16
       6035.2251   1.9686200e-16
       6036.3828   1.9875700e-16
       6037.5405   2.0070900e-16
       6038.6987   2.0778400e-16
       6039.8564   1.8986100e-16
       6041.0146   2.0453600e-16
       6042.1724   2.0624000e-16
       6043.3306   1.9859700e-16
       6044.4888   2.0634400e-16
       6045.6470   2.0109900e-16
       6046.8052   2.0233100e-16
       6047.9634   2.1312800e-16
       6049.1216   1.9376500e-16
       6050.2798   2.0811900e-16
       6051.4380   2.0864400e-16
       6052.5962   2.0454100e-16
       6053.7549   2.0210200e-16
       6054.9131   2.1440900e-16
       6056.0718   1.9701500e-16
       6057.2305   2.0697100e-16
       6058.3887   2.1267400e-16
       6059.5474   2.1450900e-16
       6060.7061   2.0839900e-16
       6061.8647   2.1489400e-16
       6063.0234   2.0635700e-16
       6064.1821   2.1039300e-16
       6065.3413   2.1555000e-16
       6066.5000   2.1464700e-16
       6067.6587   2.0597300e-16
       6068.8179   2.1130200e-16
       6069.9766   2.0428400e-16
       6071.1357   2.0832900e-16
       6072.2949   2.0870600e-16
       6073.4541   2.1460200e-16
       6074.6128   2.0754300e-16
       6075.7720   2.1390700e-16
       6076.9316   2.1223200e-16
       6078.0908   2.0603000e-16
       6079.2500   2.1101100e-16
       6080.4092   2.0621000e-16
       6081.5684   2.0879200e-16
       6082.7280   2.1775100e-16
       6083.8872   2.1862600e-16
       6085.0469   2.2387200e-16
       6086.2065   2.1879700e-16
       6087.3662   2.2184900e-16
       6088.5254   2.2255900e-16
       6089.6851   2.1786900e-16
       6090.8447   2.1800100e-16
       6092.0044   2.1118700e-16
       6093.1646   2.3237900e-16
       6094.3242   2.0984600e-16
       6095.4839   2.2476800e-16
       6096.6440   2.2979800e-16
       6097.8037   2.2055500e-16
       6098.9639   2.2472600e-16
       6100.1235   2.1607400e-16
       6101.2837   2.2375200e-16
       6102.4438   2.1604200e-16
       6103.6040   2.2506500e-16
       6104.7642   2.2664900e-16
       6105.9243   2.2313400e-16
       6107.0845   2.4089200e-16
       6108.2446   2.3200500e-16
       6109.4053   2.4053900e-16
       6110.5654   2.2492100e-16
       6111.7256   2.2573300e-16
       6112.8862   2.1483400e-16
       6114.0469   2.2608900e-16
       6115.2070   2.3004300e-16
       6116.3677   2.2663300e-16
       6117.5283   2.2767800e-16
       6118.6890   2.2372000e-16
       6119.8496   2.2789500e-16
       6121.0103   2.2446000e-16
       6122.1709   2.2858000e-16
       6123.3315   2.1745500e-16
       6124.4927   2.2659500e-16
       6125.6533   2.2620700e-16
       6126.8140   2.3352500e-16
       6127.9751   2.2216600e-16
       6129.1362   2.2903500e-16
       6130.2969   2.3450700e-16
       6131.4580   2.2603300e-16
       6132.6191   2.3701700e-16
       6133.7803   2.1535300e-16
       6134.9414   2.3878300e-16
       6136.1025   2.3656600e-16
       6137.2637   2.2548600e-16
       6138.4253   2.2500400e-16
       6139.5864   2.2236500e-16
       6140.7476   2.1575900e-16
       6141.9092   2.2287500e-16
       6143.0708   2.1280100e-16
       6144.2319   2.2723600e-16
       6145.3936   2.2848200e-16
       6146.5552   2.3008800e-16
       6147.7168   2.3072900e-16
       6148.8784   2.1471300e-16
       6150.0400   2.2219400e-16
       6151.2017   2.2370200e-16
       6152.3633   2.2696200e-16
       6153.5249   2.1765900e-16
       6154.6870   2.2593900e-16
       6155.8486   2.1145200e-16
       6157.0107   2.2930600e-16
       6158.1724   2.2241600e-16
       6159.3345   2.2254100e-16
       6160.4966   2.2016000e-16
       6161.6582   2.2846400e-16
       6162.8203   2.2453200e-16
       6163.9824   2.2808300e-16
       6165.1445   2.2184300e-16
       6166.3071   2.3421500e-16
       6167.4692   2.2694300e-16
       6168.6313   2.2131600e-16
       6169.7935   2.2286000e-16
       6170.9561   2.1318400e-16
       6172.1182   2.2569700e-16
       6173.2808   2.2464000e-16
       6174.4434   2.1625600e-16
       6175.6055   2.2191800e-16
       6176.7681   2.1463400e-16
       6177.9307   2.2118800e-16
       6179.0933   2.2075400e-16
       6180.2559   2.2795900e-16
       6181.4185   2.2310300e-16
       6182.5815   2.0614700e-16
       6183.7441   2.3658800e-16
       6184.9067   2.1565400e-16
       6186.0698   2.1106600e-16
       6187.2324   2.2021700e-16
       6188.3955   2.1828800e-16
       6189.5581   2.2749900e-16
       6190.7212   2.2135800e-16
       6191.8843   2.1889500e-16
       6193.0474   2.2459300e-16
       6194.2104   2.1483400e-16
       6195.3735   2.2318100e-16
       6196.5366   2.3493200e-16
       6197.6997   2.1538000e-16
       6198.8628   2.1792800e-16
       6200.0264   2.1755900e-16
       6201.1895   2.1071300e-16
       6202.3530   2.2345700e-16
       6203.5161   2.1882900e-16
       6204.6797   2.0732100e-16
       6205.8433   2.2144800e-16
       6207.0068   2.1867700e-16
       6208.1699   2.1221300e-16
       6209.3335   2.1742300e-16
       6210.4971   2.1646400e-16
       6211.6611   2.2240100e-16
       6212.8247   2.1423500e-16
       6213.9883   2.1827900e-16
       6215.1519   2.1857800e-16
       6216.3159   2.1615400e-16
       6217.4795   2.1256400e-16
       6218.6436   2.2159500e-16
       6219.8071   2.1200100e-16
       6220.9712   2.0615900e-16
       6222.1353   2.1823800e-16
       6223.2993   2.1113400e-16
       6224.4634   2.2517000e-16
       6225.6274   2.2690000e-16
       6226.7915   2.1205700e-16
       6227.9556   2.2148100e-16
       6229.1196   2.1124600e-16
       6230.2842   2.0822300e-16
       6231.4482   2.2325400e-16
       6232.6123   2.2009100e-16
       6233.7769   2.1821000e-16
       6234.9414   2.2301700e-16
       6236.1055   2.1883800e-16
       6237.2700   2.2140500e-16
       6238.4346   2.1270100e-16
       6239.5991   2.2414900e-16
       6240.7637   2.1300800e-16
       6241.9282   2.2132800e-16
       6243.0928   2.1882600e-16
       6244.2573   2.2230300e-16
       6245.4219   2.2663200e-16
       6246.5869   2.1630000e-16
       6247.7515   2.2436200e-16
       6248.9165   2.2007900e-16
       6250.0811   2.1215700e-16
       6251.2461   2.1677300e-16
       6252.4111   2.2276700e-16
       6253.5757   2.1251000e-16
       6254.7407   2.2186400e-16
       6255.9058   2.1985900e-16
       6257.0708   2.1597500e-16
       6258.2358   2.3465000e-16
       6259.4009   2.0789000e-16
       6260.5664   2.2022600e-16
       6261.7314   2.3169200e-16
       6262.8965   2.1127100e-16
       6264.0620   2.2024000e-16
       6265.2275   2.2701400e-16
       6266.3926   2.2437300e-16
       6267.5581   2.1716600e-16
       6268.7236   2.0773600e-16
       6269.8887   2.1710100e-16
       6271.0542   2.2189200e-16
       6272.2197   2.1451400e-16
       6273.3853   2.1294800e-16
       6274.5508   2.1024700e-16
       6275.7168   2.1131900e-16
       6276.8823   2.0222300e-16
       6278.0479   2.1501800e-16
       6279.2139   1.9752600e-16
       6280.3794   2.0758200e-16
       6281.5454   2.1894400e-16
       6282.7109   2.1642900e-16
       6283.8770   2.1729200e-16
       6285.0430   2.1919100e-16
       6286.2090   2.1480300e-16
       6287.3750   2.0282000e-16
       6288.5410   2.0615000e-16
       6289.7070   2.1298300e-16
       6290.8730   2.2540300e-16
       6292.0391   2.0891900e-16
       6293.2051   2.1278700e-16
       6294.3716   2.0957500e-16
       6295.5376   2.1427800e-16
       6296.7041   2.1400200e-16
       6297.8701   1.9982700e-16
       6299.0366   2.1228100e-16
       6300.2031   2.0621700e-16
       6301.3696   2.2097700e-16
       6302.5356   2.1215200e-16
       6303.7021   2.1049400e-16
       6304.8687   2.0797400e-16
       6306.0352   2.0503900e-16
       6307.2017   2.1405500e-16
       6308.3687   1.9984000e-16
       6309.5352   2.0678300e-16
       6310.7017   2.1018700e-16
       6311.8687   2.1189800e-16
       6313.0352   2.0777900e-16
       6314.2021   2.0226300e-16
       6315.3691   2.1126200e-16
       6316.5361   2.0103500e-16
       6317.7026   2.0884100e-16
       6318.8696   2.2167400e-16
       6320.0366   2.1378000e-16
       6321.2036   2.1871300e-16
       6322.3706   2.0874300e-16
       6323.5376   2.0279400e-16
       6324.7051   2.1283800e-16
       6325.8721   2.0877500e-16
       6327.0391   2.0948000e-16
       6328.2065   2.0765500e-16
       6329.3735   2.0823000e-16
       6330.5410   2.0767100e-16
       6331.7085   2.0988900e-16
       6332.8755   2.1489300e-16
       6334.0430   2.2566400e-16
       6335.2104   2.0922500e-16
       6336.3779   2.1274200e-16
       6337.5454   2.1326300e-16
       6338.7129   2.1959300e-16
       6339.8804   2.1452200e-16
       6341.0483   2.1775700e-16
       6342.2158   2.1473600e-16
       6343.3833   2.2003900e-16
       6344.5513   2.2159400e-16
       6345.7188   2.1876700e-16
       6346.8867   2.1682900e-16
       6348.0547   2.2076600e-16
       6349.2222   2.1707400e-16
       6350.3901   2.0876700e-16
       6351.5581   2.1363500e-16
       6352.7261   2.2468500e-16
       6353.8940   2.1851200e-16
       6355.0620   2.2086200e-16
       6356.2300   2.2090600e-16
       6357.3984   2.0606300e-16
       6358.5664   2.1765700e-16
       6359.7344   2.1373900e-16
       6360.9028   2.1890400e-16
       6362.0708   2.2812800e-16
       6363.2393   2.1370300e-16
       6364.4072   2.2064400e-16
       6365.5757   2.1926700e-16
       6366.7441   2.1648400e-16
       6367.9126   2.2615000e-16
       6369.0811   2.2281100e-16
       6370.2495   2.1027300e-16
       6371.4180   2.3162800e-16
       6372.5864   2.2286400e-16
       6373.7549   2.2152400e-16
       6374.9233   2.1700600e-16
       6376.0923   2.2631700e-16
       6377.2607   2.2234600e-16
       6378.4297   2.2338100e-16
       6379.5981   2.2734900e-16
       6380.7671   2.2390800e-16
       6381.9360   2.2234700e-16
       6383.1045   2.2397600e-16
       6384.2734   2.2265400e-16
       6385.4424   2.3443100e-16
       6386.6113   2.2584600e-16
       6387.7803   2.3076600e-16
       6388.9492   2.3037800e-16
       6390.1187   2.2356300e-16
       6391.2876   2.2172200e-16
       6392.4565   2.3030900e-16
       6393.6260   2.2555900e-16
       6394.7949   2.2414500e-16
       6395.9644   2.1884600e-16
       6397.1333   2.2447600e-16
       6398.3027   2.3003400e-16
       6399.4722   2.2148500e-16
       6400.6416   2.3270500e-16
       6401.8110   2.2618100e-16
       6402.9800   2.3205200e-16
       6404.1494   2.2280400e-16
       6405.3193   2.2277400e-16
       6406.4888   2.2775500e-16
       6407.6582   2.2603000e-16
       6408.8276   2.3143100e-16
       6409.9976   2.3161500e-16
       6411.1670   2.2520600e-16
       6412.3369   2.3392000e-16
       6413.5063   2.2122800e-16
       6414.6763   2.3062700e-16
       6415.8462   2.3381100e-16
       6417.0156   2.3923200e-16
       6418.1855   2.3266300e-16
       6419.3555   2.3405300e-16
       6420.5254   2.3870000e-16
       6421.6953   2.2730200e-16
       6422.8657   2.3243700e-16
       6424.0356   2.1971100e-16
       6425.2056   2.3661200e-16
       6426.3755   2.3027300e-16
       6427.5459   2.3482100e-16
       6428.7158   2.2803200e-16
       6429.8862   2.3254500e-16
       6431.0566   2.4469800e-16
       6432.2266   2.3408500e-16
       6433.3970   2.3573200e-16
       6434.5674   2.3864200e-16
       6435.7378   2.3726700e-16
       6436.9082   2.3649700e-16
       6438.0786   2.4031500e-16
       6439.2490   2.3224100e-16
       6440.4194   2.3517300e-16
       6441.5898   2.3719500e-16
       6442.7607   2.5458100e-16
       6443.9312   2.3457700e-16
       6445.1016   2.5029500e-16
       6446.2725   2.4066400e-16
       6447.4429   2.4557300e-16
       6448.6138   2.4078800e-16
       6449.7847   2.4256400e-16
       6450.9551   2.4977300e-16
       6452.1260   2.4423700e-16
       6453.2969   2.4257800e-16
       6454.4678   2.4806500e-16
       6455.6387   2.4866900e-16
       6456.8096   2.3910500e-16
       6457.9810   2.4272000e-16
       6459.1519   2.4256600e-16
       6460.3228   2.3340700e-16
       6461.4941   2.5109500e-16
       6462.6650   2.4642700e-16
       6463.8364   2.4755300e-16
       6465.0073   2.4060300e-16
       6466.1787   2.4288900e-16
       6467.3501   2.3844900e-16
       6468.5210   2.3322400e-16
       6469.6924   2.3482700e-16
       6470.8638   2.4452500e-16
       6472.0352   2.4640400e-16
       6473.2065   2.3533700e-16
       6474.3784   2.3969200e-16
       6475.5498   2.4623800e-16
       6476.7212   2.4241000e-16
       6477.8926   2.4404300e-16
       6479.0645   2.4934200e-16
       6480.2358   2.5905200e-16
       6481.4077   2.5018200e-16
       6482.5791   2.5131300e-16
       6483.7510   2.4506100e-16
       6484.9229   2.4821900e-16
       6486.0947   2.5568800e-16
       6487.2666   2.4613200e-16
       6488.4380   2.4191000e-16
       6489.6099   2.5142500e-16
       6490.7822   2.4118400e-16
       6491.9541   2.5082500e-16
       6493.1260   2.4910800e-16
       6494.2979   2.4013800e-16
       6495.4702   2.4947500e-16
       6496.6421   2.4419500e-16
       6497.8140   2.4926100e-16
       6498.9863   2.4348600e-16
       6500.1587   2.3921300e-16
       6501.3306   2.5683100e-16
       6502.5029   2.4229800e-16
       6503.6753   2.4503400e-16
       6504.8477   2.3675200e-16
       6506.0200   2.4256500e-16
       6507.1924   2.4696100e-16
       6508.3647   2.4080300e-16
       6509.5371   2.4961100e-16
       6510.7095   2.4117800e-16
       6511.8823   2.5066400e-16
       6513.0547   2.3537600e-16
       6514.2271   2.4008500e-16
       6515.3999   2.3735500e-16
       6516.5723   2.4485600e-16
       6517.7451   2.3547400e-16
       6518.9180   2.4328100e-16
       6520.0903   2.4677500e-16
       6521.2632   2.4571000e-16
       6522.4360   2.4246700e-16
       6523.6089   2.3811800e-16
       6524.7817   2.4213300e-16
       6525.9546   2.3684900e-16
       6527.1274   2.4596900e-16
       6528.3003   2.4049600e-16
       6529.4736   2.4170300e-16
       6530.6465   2.4014100e-16
       6531.8198   2.3650700e-16
       6532.9927   2.3506400e-16
       6534.1660   2.4075000e-16
       6535.3389   2.2996700e-16
       6536.5122   2.3273200e-16
       6537.6851   2.3445500e-16
       6538.8584   2.4233200e-16
       6540.0317   2.3786300e-16
       6541.2051   2.4394400e-16
       6542.3784   2.3725700e-16
       6543.5518   2.4156200e-16
       6544.7251   2.3352200e-16
       6545.8989   2.4293400e-16
       6547.0723   2.3059500e-16
       6548.2456   2.3578400e-16
       6549.4194   2.3803800e-16
       6550.5928   2.2842100e-16
       6551.7666   2.3177900e-16
       6552.9399   2.3714800e-16
       6554.1138   2.3714700e-16
       6555.2876   2.3502100e-16
       6556.4609   2.3298800e-16
       6557.6348   2.2465500e-16
       6558.8086   2.3555300e-16
       6559.9824   2.2832900e-16
       6561.1562   2.2801500e-16
       6562.3301   2.2963300e-16
       6563.5039   2.3015100e-16
       6564.6782   2.3356600e-16
       6565.8521   2.3231600e-16
       6567.0259   2.3261100e-16
       6568.2002   2.3690300e-16
       6569.3740   2.3627500e-16
       6570.5483   2.3646000e-16
       6571.7227   2.3559600e-16
       6572.8965   2.3047900e-16
       6574.0708   2.2614500e-16
       6575.2451   2.3659500e-16
       6576.4194   2.2819200e-16
       6577.5938   2.3364800e-16
       6578.7681   2.2836600e-16
       6579.9424   2.3656500e-16
       6581.1167   2.4458400e-16
       6582.2910   2.3650500e-16
       6583.4658   2.3341400e-16
       6584.6401   2.3527800e-16
       6585.8145   2.3685000e-16
       6586.9893   2.3032400e-16
       6588.1636   2.3971500e-16
       6589.3384   2.3014100e-16
       6590.5132   2.2421000e-16
       6591.6875   2.3442300e-16
       6592.8623   2.3569300e-16
       6594.0371   2.2912800e-16
       6595.2119   2.2390900e-16
       6596.3867   2.3214500e-16
       6597.5615   2.2850500e-16
       6598.7363   2.3142300e-16
       6599.9111   2.3181900e-16
       6601.0864   2.3209600e-16
       6602.2612   2.2260900e-16
       6603.4360   2.3348000e-16
       6604.6113   2.3507400e-16
       6605.7861   2.2599400e-16
       6606.9614   2.2833300e-16
       6608.1367   2.2710600e-16
       6609.3115   2.2938100e-16
       6610.4868   2.2829800e-16
       6611.6621   2.3247900e-16
       6612.8374   2.2419200e-16
       6614.0127   2.3187800e-16
       6615.1880   2.2530800e-16
       6616.3633   2.2867900e-16
       6617.5386   2.4865100e-16
       6618.7139   2.3364900e-16
       6619.8892   2.2506100e-16
       6621.0649   2.3449800e-16
       6622.2402   2.2658900e-16
       6623.4160   2.2086000e-16
       6624.5913   2.3195600e-16
       6625.7671   2.2261400e-16
       6626.9424   2.4203200e-16
       6628.1182   2.2666500e-16
       6629.2939   2.3137500e-16
       6630.4697   2.2278500e-16
       6631.6455   2.2615900e-16
       6632.8213   2.3763300e-16
       6633.9971   2.2065000e-16
       6635.1729   2.2480400e-16
       6636.3486   2.3065800e-16
       6637.5244   2.2269900e-16
       6638.7007   2.2188000e-16
       6639.8765   2.2562600e-16
       6641.0527   2.3386100e-16
       6642.2285   2.2620800e-16
       6643.4043   2.2820500e-16
       6644.5806   2.3187900e-16
       6645.7568   2.3404200e-16
       6646.9331   2.2245400e-16
       6648.1089   2.2669000e-16
       6649.2852   2.3820300e-16
       6650.4614   2.3254500e-16
       6651.6377   2.3396000e-16
       6652.8140   2.2882200e-16
       6653.9902   2.2666600e-16
       6655.1670   2.2879200e-16
       6656.3433   2.2394200e-16
       6657.5195   2.2500100e-16
       6658.6958   2.3177000e-16
       6659.8726   2.3097600e-16
       6661.0488   2.2784800e-16
       6662.2256   2.2638200e-16
       6663.4023   2.1739900e-16
       6664.5786   2.2436300e-16
       6665.7554   2.3298100e-16
       6666.9321   2.2861000e-16
       6668.1089   2.2512700e-16
       6669.2856   2.3272100e-16
       6670.4624   2.2527000e-16
       6671.6392   2.2129100e-16
       6672.8159   2.2517300e-16
       6673.9927   2.2988200e-16
       6675.1694   2.3281800e-16
       6676.3467   2.2858100e-16
       6677.5234   2.2979400e-16
       6678.7002   2.2540700e-16
       6679.8774   2.2719900e-16
       6681.0542   2.2178800e-16
       6682.2314   2.3050300e-16
       6683.4087   2.2727700e-16
       6684.5859   2.3550200e-16
       6685.7627   2.2466500e-16
       6686.9399   2.2964200e-16
       6688.1172   2.3591200e-16
       6689.2944   2.2909000e-16
       6690.4717   2.3398500e-16
       6691.6489   2.2588200e-16
       6692.8267   2.2645700e-16
       6694.0039   2.2893300e-16
       6695.1812   2.2543400e-16
       6696.3584   2.2341400e-16
       6697.5361   2.2542500e-16
       6698.7134   2.3045700e-16
       6699.8911   2.2169400e-16
       6701.0688   2.2628300e-16
       6702.2461   2.2855800e-16
       6703.4238   2.2268200e-16
       6704.6016   2.3209500e-16
       6705.7793   2.2999900e-16
       6706.9570   2.3547000e-16
       6708.1348   2.2800100e-16
       6709.3125   2.4536500e-16
       6710.4902   2.2730600e-16
       6711.6680   2.2653400e-16
       6712.8457   2.3266100e-16
       6714.0239   2.2337400e-16
       6715.2017   2.3114900e-16
       6716.3794   2.2696565e-16
       6717.5576   2.2699911e-16
       6718.7354   2.2703256e-16
       6719.9136   2.2706602e-16
       6721.0918   2.2709948e-16
       6722.2695   2.2713292e-16
       6723.4478   2.2716638e-16
       6724.6260   2.2719984e-16
       6725.8042   2.2723330e-16
       6726.9824   2.2726676e-16
       6728.1606   2.2730022e-16
       6729.3389   2.2733368e-16
       6730.5171   2.2736714e-16
       6731.6953   2.2740059e-16
       6732.8740   2.2743407e-16
       6734.0522   2.2746753e-16
       6735.2305   2.2750099e-16
       6736.4092   2.2753446e-16
       6737.5874   2.2756792e-16
       6738.7661   2.3043200e-16
       6739.9448   2.1753700e-16
       6741.1235   2.1960000e-16
       6742.3018   2.3351700e-16
       6743.4805   2.2683300e-16
       6744.6592   2.3193400e-16
       6745.8379   2.4036700e-16
       6747.0166   2.3068500e-16
       6748.1953   2.3322700e-16
       6749.3740   2.2729400e-16
       6750.5527   2.3000000e-16
       6751.7319   2.2798200e-16
       6752.9106   2.3674400e-16
       6754.0894   2.2934700e-16
       6755.2686   2.2181400e-16
       6756.4473   2.2403700e-16
       6757.6265   2.1078600e-16
       6758.8052   2.1903800e-16
       6759.9844   2.1790900e-16
       6761.1636   2.2240500e-16
       6762.3428   2.2441700e-16
       6763.5215   2.2781600e-16
       6764.7007   2.2804900e-16
       6765.8799   2.1090700e-16
       6767.0591   2.1785800e-16
       6768.2388   2.2082900e-16
       6769.4180   2.2175800e-16
       6770.5972   2.2126300e-16
       6771.7764   2.1749300e-16
       6772.9561   2.2380000e-16
       6774.1353   2.2429700e-16
       6775.3149   2.2995900e-16
       6776.4941   2.1555900e-16
       6777.6738   2.1679600e-16
       6778.8530   2.1616100e-16
       6780.0327   2.2827400e-16
       6781.2124   2.1435600e-16
       6782.3921   2.1829700e-16
       6783.5713   2.1694900e-16
       6784.7510   2.1352900e-16
       6785.9307   2.1758500e-16
       6787.1108   2.1663300e-16
       6788.2905   2.1167800e-16
       6789.4702   2.2002100e-16
       6790.6499   2.1890800e-16
       6791.8296   2.1991900e-16
       6793.0098   2.1220900e-16
       6794.1895   2.0837700e-16
       6795.3696   2.1603400e-16
       6796.5493   2.2834100e-16
       6797.7295   2.1603800e-16
       6798.9092   2.2060900e-16
       6800.0894   2.1243100e-16
       6801.2695   2.0850600e-16
       6802.4497   2.2011200e-16
       6803.6299   2.1041500e-16
       6804.8101   2.1478000e-16
       6805.9902   2.1286600e-16
       6807.1704   2.1275200e-16
       6808.3506   2.1557300e-16
       6809.5308   2.1474000e-16
       6810.7109   2.0304100e-16
       6811.8916   2.1266900e-16
       6813.0718   2.1438100e-16
       6814.2524   2.1014400e-16
       6815.4326   2.1100900e-16
       6816.6133   2.1980200e-16
       6817.7935   2.1417900e-16
       6818.9741   2.1183000e-16
       6820.1548   2.0964300e-16
       6821.3350   2.0267200e-16
       6822.5156   2.1097400e-16
       6823.6963   2.1412600e-16
       6824.8770   2.1312900e-16
       6826.0576   2.0735300e-16
       6827.2383   2.1191700e-16
       6828.4194   2.1523800e-16
       6829.6001   2.1434700e-16
       6830.7808   2.1606900e-16
       6831.9614   2.1381600e-16
       6833.1426   2.0909200e-16
       6834.3232   2.0473800e-16
       6835.5044   2.0492300e-16
       6836.6851   2.1195100e-16
       6837.8662   2.1002600e-16
       6839.0469   2.0125800e-16
       6840.2280   2.0997700e-16
       6841.4092   2.0219200e-16
       6842.5903   2.1348200e-16
       6843.7715   2.0763500e-16
       6844.9526   2.0890600e-16
       6846.1338   2.1169400e-16
       6847.3149   2.0606300e-16
       6848.4961   1.9875200e-16
       6849.6772   2.0279000e-16
       6850.8584   2.0325200e-16
       6852.0400   2.0007000e-16
       6853.2212   1.9785100e-16
       6854.4028   2.0135700e-16
       6855.5840   2.1262200e-16
       6856.7656   2.0732500e-16
       6857.9468   2.0402000e-16
       6859.1284   1.9822100e-16
       6860.3101   1.9942700e-16
       6861.4912   1.9411700e-16
       6862.6729   2.0655000e-16
       6863.8545   1.9345900e-16
       6865.0361   1.9269200e-16
       6866.2178   1.8978800e-16
       6867.3994   1.9773300e-16
       6868.5811   1.9484900e-16
       6869.7632   2.0226800e-16
       6870.9448   2.0400500e-16
       6872.1265   1.8819300e-16
       6873.3081   1.9275300e-16
       6874.4902   2.0330800e-16
       6875.6719   1.9289900e-16
       6876.8540   1.9158200e-16
       6878.0361   1.9720900e-16
       6879.2178   2.0256000e-16
       6880.3999   1.9869200e-16
       6881.5820   2.0873500e-16
       6882.7637   2.0766100e-16
       6883.9458   2.0520500e-16
       6885.1279   2.0707200e-16
       6886.3101   1.9788300e-16
       6887.4922   1.9606200e-16
       6888.6748   2.0370600e-16
       6889.8569   1.9690200e-16
       6891.0391   1.8659000e-16
       6892.2212   1.8946000e-16
       6893.4038   1.9353300e-16
       6894.5859   2.0018800e-16
       6895.7681   1.9927000e-16
       6896.9507   2.0292100e-16
       6898.1333   1.9310200e-16
       6899.3154   1.9847900e-16
       6900.4980   1.9271400e-16
       6901.6807   1.8763000e-16
       6902.8628   1.9038300e-16
       6904.0454   1.8253500e-16
       6905.2280   1.8715400e-16
       6906.4106   1.8137500e-16
       6907.5933   1.8899400e-16
       6908.7759   1.8672300e-16
       6909.9585   1.8447900e-16
       6911.1416   1.9074800e-16
       6912.3242   1.8508800e-16
       6913.5068   1.8091800e-16
       6914.6899   1.7858000e-16
       6915.8726   1.8186600e-16
       6917.0552   1.8023300e-16
       6918.2383   1.8272400e-16
       6919.4214   1.8596100e-16
       6920.6040   1.8274800e-16
       6921.7871   1.8504200e-16
       6922.9702   1.7509700e-16
       6924.1533   1.8315500e-16
       6925.3364   1.7712100e-16
       6926.5190   1.8297400e-16
       6927.7026   1.8847000e-16
       6928.8857   1.8486500e-16
       6930.0684   1.8519800e-16
       6931.2520   1.7953500e-16
       6932.4351   1.7437800e-16
       6933.6182   1.7796300e-16
       6934.8018   1.8552600e-16
       6935.9849   1.7977800e-16
       6937.1680   1.7279300e-16
       6938.3516   1.8269300e-16
       6939.5347   1.8235000e-16
       6940.7183   1.7227700e-16
       6941.9019   1.8187200e-16
       6943.0850   1.8097800e-16
       6944.2686   1.7981300e-16
       6945.4521   1.8253300e-16
       6946.6357   1.8310100e-16
       6947.8193   1.7131300e-16
       6949.0029   1.6732700e-16
       6950.1865   1.7547100e-16
       6951.3701   1.7584100e-16
       6952.5537   1.7508100e-16
       6953.7378   1.8014200e-16
       6954.9214   1.8426800e-16
       6956.1050   1.7898500e-16
       6957.2891   1.7751400e-16
       6958.4727   1.7335900e-16
       6959.6567   1.7052700e-16
       6960.8403   1.7723100e-16
       6962.0244   1.7829100e-16
       6963.2080   1.7820500e-16
       6964.3921   1.8583700e-16
       6965.5762   1.8258400e-16
       6966.7603   1.7620600e-16
       6967.9443   1.7137100e-16
       6969.1284   1.8636200e-16
       6970.3125   1.7811300e-16
       6971.4966   1.7204700e-16
       6972.6807   1.7747800e-16
       6973.8647   1.7946100e-16
       6975.0488   1.7248000e-16
       6976.2334   1.6829900e-16
       6977.4175   1.7211300e-16
       6978.6016   1.8128600e-16
       6979.7861   1.6858500e-16
       6980.9702   1.7202900e-16
       6982.1548   1.6980100e-16
       6983.3389   1.7505800e-16
       6984.5234   1.7199600e-16
       6985.7080   1.6294200e-16
       6986.8926   1.7564000e-16
       6988.0767   1.7617900e-16
       6989.2612   1.7194100e-16
       6990.4458   1.7163200e-16
       6991.6304   1.6689700e-16
       6992.8154   1.6711200e-16
       6994.0000   1.7479000e-16
       6995.1846   1.6989100e-16
       6996.3691   1.6525700e-16
       6997.5537   1.5985900e-16
       6998.7388   1.6935600e-16
       6999.9233   1.7689600e-16
       7001.1079   1.6728100e-16
       7002.2930   1.6616300e-16
       7003.4780   1.6884300e-16
       7004.6626   1.7340000e-16
       7005.8477   1.5726700e-16
       7007.0322   1.6350900e-16
       7008.2173   1.6724100e-16
       7009.4023   1.5854300e-16
       7010.5874   1.7287800e-16
       7011.7725   1.7345300e-16
       7012.9575   1.6388000e-16
       7014.1426   1.5916700e-16
       7015.3276   1.6712900e-16
       7016.5127   1.5947300e-16
       7017.6978   1.7317200e-16
       7018.8833   1.6120900e-16
       7020.0684   1.7524100e-16
       7021.2534   1.6395200e-16
       7022.4390   1.7047500e-16
       7023.6240   1.6783300e-16
       7024.8096   1.6829700e-16
       7025.9946   1.6335500e-16
       7027.1802   1.5966700e-16
       7028.3657   1.6120900e-16
       7029.5508   1.6636800e-16
       7030.7363   1.6572000e-16
       7031.9219   1.6072200e-16
       7033.1074   1.6680900e-16
       7034.2930   1.6824600e-16
       7035.4785   1.6389600e-16
       7036.6641   1.5778800e-16
       7037.8496   1.5876500e-16
       7039.0352   1.5647300e-16
       7040.2212   1.5893800e-16
       7041.4067   1.6665200e-16
       7042.5923   1.5945600e-16
       7043.7783   1.6498100e-16
       7044.9639   1.5490100e-16
       7046.1499   1.6302700e-16
       7047.3354   1.6037800e-16
       7048.5215   1.5999700e-16
       7049.7070   1.6586600e-16
       7050.8931   1.6040800e-16
       7052.0791   1.6370700e-16
       7053.2651   1.5262000e-16
       7054.4507   1.5576900e-16
       7055.6367   1.5611800e-16
       7056.8228   1.5987600e-16
       7058.0088   1.6109100e-16
       7059.1953   1.6279400e-16
       7060.3813   1.5793300e-16
       7061.5674   1.5895900e-16
       7062.7534   1.6171900e-16
       7063.9395   1.6923600e-16
       7065.1260   1.5007900e-16
       7066.3120   1.5461200e-16
       7067.4985   1.6328500e-16
       7068.6846   1.5236500e-16
       7069.8711   1.5874800e-16
       7071.0571   1.5524500e-16
       7072.2437   1.5551600e-16
       7073.4302   1.5912800e-16
       7074.6162   1.5468400e-16
       7075.8027   1.5049500e-16
       7076.9893   1.5612900e-16
       7078.1758   1.6029700e-16
       7079.3623   1.5910300e-16
       7080.5488   1.6215700e-16
       7081.7354   1.5258100e-16
       7082.9219   1.5526000e-16
       7084.1089   1.6016300e-16
       7085.2954   1.5711700e-16
       7086.4819   1.5775600e-16
       7087.6685   1.5288300e-16
       7088.8555   1.5467400e-16
       7090.0420   1.5378400e-16
       7091.2290   1.5588500e-16
       7092.4155   1.6270500e-16
       7093.6025   1.5381300e-16
       7094.7896   1.5261500e-16
       7095.9761   1.4847400e-16
       7097.1631   1.5778100e-16
       7098.3501   1.5408700e-16
       7099.5371   1.5857400e-16
       7100.7241   1.6049700e-16
       7101.9111   1.5750100e-16
       7103.0981   1.5676700e-16
       7104.2852   1.5499600e-16
       7105.4722   1.5956900e-16
       7106.6592   1.5182500e-16
       7107.8462   1.5766100e-16
       7109.0337   1.5180100e-16
       7110.2207   1.5510900e-16
       7111.4077   1.5241800e-16
       7112.5952   1.5712200e-16
       7113.7822   1.4942300e-16
       7114.9697   1.5491000e-16
       7116.1572   1.5039600e-16
       7117.3442   1.5268500e-16
       7118.5317   1.5239000e-16
       7119.7192   1.6048700e-16
       7120.9067   1.5578800e-16
       7122.0938   1.4739500e-16
       7123.2812   1.5945500e-16
       7124.4688   1.5771300e-16
       7125.6562   1.4668100e-16
       7126.8438   1.5812000e-16
       7128.0312   1.5056200e-16
       7129.2192   1.5196900e-16
       7130.4067   1.5060600e-16
       7131.5942   1.5479700e-16
       7132.7817   1.5500900e-16
       7133.9697   1.4821200e-16
       7135.1572   1.4889400e-16
       7136.3452   1.4973300e-16
       7137.5327   1.5695900e-16
       7138.7207   1.5150900e-16
       7139.9082   1.5246700e-16
       7141.0962   1.5224400e-16
       7142.2842   1.4854900e-16
       7143.4717   1.5457200e-16
       7144.6597   1.5462200e-16
       7145.8477   1.5428900e-16
       7147.0356   1.4869000e-16
       7148.2236   1.5540000e-16
       7149.4116   1.4924700e-16
       7150.5996   1.5152800e-16
       7151.7876   1.5638800e-16
       7152.9761   1.5442800e-16
       7154.1641   1.5013300e-16
       7155.3521   1.4904800e-16
       7156.5400   1.5245600e-16
       7157.7285   1.5741400e-16
       7158.9165   1.5040200e-16
       7160.1050   1.5492800e-16
       7161.2930   1.5353000e-16
       7162.4814   1.5094000e-16
       7163.6699   1.5473800e-16
       7164.8579   1.4961300e-16
       7166.0464   1.5482500e-16
       7167.2349   1.5442400e-16
       7168.4233   1.5317500e-16
       7169.6113   1.5487800e-16
       7170.7998   1.4304200e-16
       7171.9883   1.5525100e-16
       7173.1768   1.5098200e-16
       7174.3657   1.5199600e-16
       7175.5542   1.4860300e-16
       7176.7427   1.5257100e-16
       7177.9312   1.5087800e-16
       7179.1196   1.5217100e-16
       7180.3086   1.5307300e-16
       7181.4971   1.4809500e-16
       7182.6860   1.4604000e-16
       7183.8745   1.5572900e-16
       7185.0635   1.4983700e-16
       7186.2520   1.5405000e-16
       7187.4409   1.5246700e-16
       7188.6294   1.5575500e-16
       7189.8184   1.5373400e-16
       7191.0073   1.5733600e-16
       7192.1963   1.5499800e-16
       7193.3853   1.5482400e-16
       7194.5742   1.5351400e-16
       7195.7632   1.5008700e-16
       7196.9521   1.5450500e-16
       7198.1411   1.4634400e-16
       7199.3301   1.4936900e-16
       7200.5190   1.5893400e-16
       7201.7080   1.4729500e-16
       7202.8975   1.4887500e-16
       7204.0864   1.5372300e-16
       7205.2754   1.5303000e-16
       7206.4648   1.5195200e-16
       7207.6538   1.4702000e-16
       7208.8433   1.4706000e-16
       7210.0322   1.4931800e-16
       7211.2217   1.5395700e-16
       7212.4111   1.4887200e-16
       7213.6001   1.4862400e-16
       7214.7896   1.4930700e-16
       7215.9790   1.5161600e-16
       7217.1685   1.4900200e-16
       7218.3579   1.5597100e-16
       7219.5474   1.5405400e-16
       7220.7368   1.5394200e-16
       7221.9263   1.5212100e-16
       7223.1157   1.5218500e-16
       7224.3052   1.5362000e-16
       7225.4946   1.5957500e-16
       7226.6841   1.5079200e-16
       7227.8740   1.5811000e-16
       7229.0635   1.5214000e-16
       7230.2534   1.4954400e-16
       7231.4429   1.4915900e-16
       7232.6328   1.5839600e-16
       7233.8223   1.5340500e-16
       7235.0122   1.5273100e-16
       7236.2017   1.6435700e-16
       7237.3916   1.5697700e-16
       7238.5815   1.6228700e-16
       7239.7710   1.6027000e-16
       7240.9609   1.6448800e-16
       7242.1509   1.5738000e-16
       7243.3408   1.5842400e-16
       7244.5308   1.6869500e-16
       7245.7207   1.6006400e-16
       7246.9106   1.5369900e-16
       7248.1006   1.5947500e-16
       7249.2910   1.6134900e-16
       7250.4810   1.5806500e-16
       7251.6709   1.5838000e-16
       7252.8608   1.5092000e-16
       7254.0513   1.6503000e-16
       7255.2412   1.5878400e-16
       7256.4316   1.5113000e-16
       7257.6216   1.6213100e-16
       7258.8120   1.6171500e-16
       7260.0020   1.5992200e-16
       7261.1924   1.5727100e-16
       7262.3828   1.6027700e-16
       7263.5728   1.6177900e-16
       7264.7632   1.6422400e-16
       7265.9536   1.6638400e-16
       7267.1440   1.6570200e-16
       7268.3345   1.6696300e-16
       7269.5249   1.6091100e-16
       7270.7153   1.6280300e-16
       7271.9058   1.6410000e-16
       7273.0962   1.6225000e-16
       7274.2866   1.6593500e-16
       7275.4771   1.6307100e-16
       7276.6680   1.6169200e-16
       7277.8584   1.6248500e-16
       7279.0488   1.6630000e-16
       7280.2397   1.6776300e-16
       7281.4302   1.6398400e-16
       7282.6211   1.6051100e-16
       7283.8115   1.7058700e-16
       7285.0024   1.6376800e-16
       7286.1929   1.6027600e-16
       7287.3838   1.7133600e-16
       7288.5747   1.6382400e-16
       7289.7656   1.5603500e-16
       7290.9565   1.6983200e-16
       7292.1470   1.6590300e-16
       7293.3379   1.6074700e-16
       7294.5288   1.6775400e-16
       7295.7197   1.6452200e-16
       7296.9106   1.5912800e-16
       7298.1016   1.6176200e-16
       7299.2925   1.6335600e-16
       7300.4839   1.6972700e-16
       7301.6748   1.6441600e-16
       7302.8657   1.6790500e-16
       7304.0571   1.6368100e-16
       7305.2480   1.6893300e-16
       7306.4390   1.6133400e-16
       7307.6304   1.6601800e-16
       7308.8213   1.5831300e-16
       7310.0127   1.7044300e-16
       7311.2041   1.7246100e-16
       7312.3950   1.7037200e-16
       7313.5864   1.7377100e-16
       7314.7778   1.7022900e-16
       7315.9692   1.6073700e-16
       7317.1602   1.7242700e-16
       7318.3516   1.6574700e-16
       7319.5430   1.7383000e-16
       7320.7344   1.6625900e-16
       7321.9258   1.6322500e-16
       7323.1172   1.6089800e-16
       7324.3086   1.6272300e-16
       7325.5000   1.5909500e-16
       7326.6919   1.6338100e-16
       7327.8833   1.6408200e-16
       7329.0747   1.5794400e-16
       7330.2666   1.5878700e-16
       7331.4580   1.5776100e-16
       7332.6494   1.5803100e-16
       7333.8413   1.5455400e-16
       7335.0327   1.6437100e-16
       7336.2246   1.5795100e-16
       7337.4165   1.6349200e-16
       7338.6079   1.6248100e-16
       7339.7998   1.6882700e-16
       7340.9917   1.6761000e-16
       7342.1831   1.6045600e-16
       7343.3750   1.5202500e-16
       7344.5669   1.6712700e-16
       7345.7588   1.6083600e-16
       7346.9507   1.6446600e-16
       7348.1426   1.5292100e-16
       7349.3345   1.6426800e-16
       7350.5264   1.6393500e-16
       7351.7183   1.5801100e-16
       7352.9106   1.6126200e-16
       7354.1025   1.6535900e-16
       7355.2944   1.5846200e-16
       7356.4868   1.5796400e-16
       7357.6787   1.6218800e-16
       7358.8706   1.6069700e-16
       7360.0630   1.6085300e-16
       7361.2549   1.5411600e-16
       7362.4473   1.6038700e-16
       7363.6392   1.5469400e-16
       7364.8315   1.5285500e-16
       7366.0239   1.6402500e-16
       7367.2158   1.5735200e-16
       7368.4082   1.5943600e-16
       7369.6006   1.6185200e-16
       7370.7930   1.5328200e-16
       7371.9854   1.5936200e-16
       7373.1777   1.6324700e-16
       7374.3701   1.6192900e-16
       7375.5625   1.6277300e-16
       7376.7549   1.5843600e-16
       7377.9473   1.5953000e-16
       7379.1396   1.5458900e-16
       7380.3320   1.5650700e-16
       7381.5249   1.5726900e-16
       7382.7173   1.5784300e-16
       7383.9097   1.5028200e-16
       7385.1025   1.6420000e-16
       7386.2949   1.5929300e-16
       7387.4878   1.6564100e-16
       7388.6802   1.5659500e-16
       7389.8730   1.5562900e-16
       7391.0654   1.5544400e-16
       7392.2583   1.5202400e-16
       7393.4512   1.5635000e-16
       7394.6436   1.5412700e-16
       7395.8364   1.5459000e-16
       7397.0293   1.5822900e-16
       7398.2222   1.5200100e-16
       7399.4150   1.5432000e-16
       7400.6079   1.5929800e-16
       7401.8008   1.5319100e-16
       7402.9937   1.5193500e-16
       7404.1865   1.5465200e-16
       7405.3794   1.5731300e-16
       7406.5723   1.5490300e-16
       7407.7651   1.4917500e-16
       7408.9585   1.5334200e-16
       7410.1514   1.5289800e-16
       7411.3442   1.5210400e-16
       7412.5376   1.5309200e-16
       7413.7305   1.5305600e-16
       7414.9238   1.4527600e-16
       7416.1167   1.5123500e-16
       7417.3101   1.5267500e-16
       7418.5029   1.4844100e-16
       7419.6963   1.5381000e-16
       7420.8892   1.5162500e-16
       7422.0825   1.5467800e-16
       7423.2759   1.5019500e-16
       7424.4692   1.5207200e-16
       7425.6626   1.6047500e-16
       7426.8555   1.5401000e-16
       7428.0493   1.4959400e-16
       7429.2422   1.4627100e-16
       7430.4360   1.4783200e-16
       7431.6294   1.4858200e-16
       7432.8228   1.5104800e-16
       7434.0161   1.4953300e-16
       7435.2095   1.4934800e-16
       7436.4028   1.4989400e-16
       7437.5962   1.4909100e-16
       7438.7900   1.5158700e-16
       7439.9834   1.3605500e-16
       7441.1768   1.4808700e-16
       7442.3706   1.4759800e-16
       7443.5640   1.3943600e-16
       7444.7578   1.4844300e-16
       7445.9517   1.4377900e-16
       7447.1450   1.4052100e-16
       7448.3389   1.5267400e-16
       7449.5327   1.4111600e-16
       7450.7261   1.4460500e-16
       7451.9199   1.3974700e-16
       7453.1138   1.3774900e-16
       7454.3076   1.4697400e-16
       7455.5015   1.4645000e-16
       7456.6953   1.4111500e-16
       7457.8887   1.4188900e-16
       7459.0830   1.4211200e-16
       7460.2769   1.4262400e-16
       7461.4707   1.4608200e-16
       7462.6646   1.4402700e-16
       7463.8584   1.4054500e-16
       7465.0522   1.3996900e-16
       7466.2466   1.4640300e-16
       7467.4404   1.3947400e-16
       7468.6343   1.4277400e-16
       7469.8286   1.4102600e-16
       7471.0225   1.5169900e-16
       7472.2168   1.4692400e-16
       7473.4106   1.4632200e-16
       7474.6050   1.4374300e-16
       7475.7988   1.4017500e-16
       7476.9932   1.5151800e-16
       7478.1875   1.3681100e-16
       7479.3813   1.4449600e-16
       7480.5757   1.4094900e-16
       7481.7700   1.4419400e-16
       7482.9644   1.3833000e-16
       7484.1582   1.4112400e-16
       7485.3525   1.5034800e-16
       7486.5469   1.4044300e-16
       7487.7412   1.4045100e-16
       7488.9355   1.4670400e-16
       7490.1299   1.4003400e-16
       7491.3247   1.4369200e-16
       7492.5190   1.4591300e-16
       7493.7134   1.4346700e-16
       7494.9077   1.3979900e-16
       7496.1025   1.3540100e-16
       7497.2969   1.4391300e-16
       7498.4912   1.4065800e-16
       7499.6860   1.4517600e-16
       7500.8804   1.4873400e-16
       7502.0752   1.5470500e-16
       7503.2695   1.4170100e-16
       7504.4644   1.4191600e-16
       7505.6587   1.4063400e-16
       7506.8535   1.4481200e-16
       7508.0483   1.4196800e-16
       7509.2427   1.4576100e-16
       7510.4375   1.4207300e-16
       7511.6323   1.4522700e-16
       7512.8271   1.4459900e-16
       7514.0215   1.3468200e-16
       7515.2163   1.4668500e-16
       7516.4111   1.4159900e-16
       7517.6060   1.4237900e-16
       7518.8008   1.4359300e-16
       7519.9956   1.4362900e-16
       7521.1909   1.4323800e-16
       7522.3857   1.3969100e-16
       7523.5806   1.3997300e-16
       7524.7754   1.3966400e-16
       7525.9702   1.5073500e-16
       7527.1655   1.4692300e-16
       7528.3604   1.4223700e-16
       7529.5552   1.3997000e-16
       7530.7505   1.3285500e-16
       7531.9453   1.3466000e-16
       7533.1406   1.3478800e-16
       7534.3354   1.3718000e-16
       7535.5308   1.3895800e-16
       7536.7261   1.3711600e-16
       7537.9209   1.3212500e-16
       7539.1162   1.3627100e-16
       7540.3115   1.3655600e-16
       7541.5068   1.3696500e-16
       7542.7017   1.3699100e-16
       7543.8970   1.3905900e-16
       7545.0923   1.4008300e-16
       7546.2876   1.4290800e-16
       7547.4829   1.3603900e-16
       7548.6782   1.4177100e-16
       7549.8735   1.3730800e-16
       7551.0688   1.3688800e-16
       7552.2642   1.3196000e-16
       7553.4595   1.3988600e-16
       7554.6548   1.3997700e-16
       7555.8506   1.3591200e-16
       7557.0459   1.3827900e-16
       7558.2412   1.3878900e-16
       7559.4370   1.4313200e-16
       7560.6323   1.3719700e-16
       7561.8276   1.3877700e-16
       7563.0234   1.3780800e-16
       7564.2188   1.3669500e-16
       7565.4146   1.3774900e-16
       7566.6099   1.3517500e-16
       7567.8057   1.3731500e-16
       7569.0015   1.2930700e-16
       7570.1968   1.3261700e-16
       7571.3926   1.3510000e-16
       7572.5884   1.3795900e-16
       7573.7842   1.3381700e-16
       7574.9795   1.3929600e-16
       7576.1753   1.3404800e-16
       7577.3711   1.3697200e-16
       7578.5669   1.3789700e-16
       7579.7627   1.3661900e-16
       7580.9585   1.3845300e-16
       7582.1543   1.3869700e-16
       7583.3501   1.3820900e-16
       7584.5459   1.3839500e-16
       7585.7422   1.3115100e-16
       7586.9380   1.3143000e-16
       7588.1338   1.3074700e-16
       7589.3296   1.3519200e-16
       7590.5259   1.3167600e-16
       7591.7217   1.2229700e-16
       7592.9175   1.2969500e-16
       7594.1138   1.2284300e-16
       7595.3096   1.2494000e-16
       7596.5059   1.2262600e-16
       7597.7017   1.2927000e-16
       7598.8979   1.2652400e-16
       7600.0942   1.3506000e-16
       7601.2900   1.2826300e-16
       7602.4863   1.2407000e-16
       7603.6826   1.2179500e-16
       7604.8784   1.3084500e-16
       7606.0747   1.2232000e-16
       7607.2710   1.1983100e-16
       7608.4673   1.2852600e-16
       7609.6636   1.2895400e-16
       7610.8594   1.2587200e-16
       7612.0557   1.2980500e-16
       7613.2524   1.3203300e-16
       7614.4487   1.3249900e-16
       7615.6450   1.3466500e-16
       7616.8413   1.1987800e-16
       7618.0376   1.1836200e-16
       7619.2339   1.2780000e-16
       7620.4302   1.2475100e-16
       7621.6265   1.2505200e-16
       7622.8232   1.2821800e-16
       7624.0195   1.1734700e-16
       7625.2163   1.1865300e-16
       7626.4126   1.2695200e-16
       7627.6089   1.1899700e-16
       7628.8057   1.2312400e-16
       7630.0020   1.2186600e-16
       7631.1987   1.3203300e-16
       7632.3950   1.2178000e-16
       7633.5918   1.3077800e-16
       7634.7886   1.2859200e-16
       7635.9849   1.2346900e-16
       7637.1816   1.2759900e-16
       7638.3784   1.2026500e-16
       7639.5752   1.2469500e-16
       7640.7715   1.2675500e-16
       7641.9683   1.2452400e-16
       7643.1650   1.2273800e-16
       7644.3618   1.2449300e-16
       7645.5586   1.2849100e-16
       7646.7554   1.2243900e-16
       7647.9521   1.2737800e-16
       7649.1489   1.2689800e-16
       7650.3457   1.2337200e-16
       7651.5425   1.2502400e-16
       7652.7393   1.2209200e-16
       7653.9365   1.1917100e-16
       7655.1333   1.2699600e-16
       7656.3301   1.2618400e-16
       7657.5273   1.1672400e-16
       7658.7241   1.1914900e-16
       7659.9209   1.2520500e-16
       7661.1182   1.2253100e-16
       7662.3149   1.2671500e-16
       7663.5122   1.2312400e-16
       7664.7090   1.2313500e-16
       7665.9058   1.2541400e-16
       7667.1030   1.2368000e-16
       7668.3003   1.2286800e-16
       7669.4971   1.2277700e-16
       7670.6943   1.1358400e-16
       7671.8916   1.2663400e-16
       7673.0884   1.2291200e-16
       7674.2856   1.2298800e-16
       7675.4829   1.1797600e-16
       7676.6802   1.2284800e-16
       7677.8774   1.2380800e-16
       7679.0747   1.1507600e-16
       7680.2720   1.1985800e-16
       7681.4692   1.2339500e-16
       7682.6665   1.1647100e-16
       7683.8638   1.2342000e-16
       7685.0610   1.2168800e-16
       7686.2583   1.1590500e-16
       7687.4556   1.1690800e-16
       7688.6528   1.2340000e-16
       7689.8501   1.2254500e-16
       7691.0479   1.2032200e-16
       7692.2451   1.1912500e-16
       7693.4424   1.2157100e-16
       7694.6401   1.1901500e-16
       7695.8374   1.1419600e-16
       7697.0347   1.1871500e-16
       7698.2324   1.2613100e-16
       7699.4297   1.1959200e-16
       7700.6274   1.2351000e-16
       7701.8247   1.1942100e-16
       7703.0225   1.2451400e-16
       7704.2202   1.2198800e-16
       7705.4175   1.1742100e-16
       7706.6152   1.1911800e-16
       7707.8130   1.1543400e-16
       7709.0103   1.2299500e-16
       7710.2080   1.2046200e-16
       7711.4058   1.1930300e-16
       7712.6035   1.2194000e-16
       7713.8013   1.1811700e-16
       7714.9990   1.2407700e-16
       7716.1963   1.1559600e-16
       7717.3940   1.2485900e-16
       7718.5918   1.2042200e-16
       7719.7900   1.2116500e-16
       7720.9873   1.2357300e-16
       7722.1851   1.1725500e-16
       7723.3833   1.2186000e-16
       7724.5811   1.2067500e-16
       7725.7788   1.1890600e-16
       7726.9766   1.1305200e-16
       7728.1748   1.2795000e-16
       7729.3726   1.2225000e-16
       7730.5703   1.1885200e-16
       7731.7681   1.2098800e-16
       7732.9663   1.1596600e-16
       7734.1641   1.2046200e-16
       7735.3623   1.1929300e-16
       7736.5601   1.1759900e-16
       7737.7583   1.1655600e-16
       7738.9561   1.2457500e-16
       7740.1543   1.1315200e-16
       7741.3521   1.1730400e-16
       7742.5503   1.2120600e-16
       7743.7485   1.1822400e-16
       7744.9463   1.1991000e-16
       7746.1445   1.2155700e-16
       7747.3428   1.1652900e-16
       7748.5410   1.2085800e-16
       7749.7388   1.2293900e-16
       7750.9370   1.2742600e-16
       7752.1353   1.1766500e-16
       7753.3335   1.2296000e-16
       7754.5317   1.2389400e-16
       7755.7300   1.0947800e-16
       7756.9282   1.2804100e-16
       7758.1265   1.2103000e-16
       7759.3247   1.3053100e-16
       7760.5229   1.2383700e-16
       7761.7212   1.2464900e-16
       7762.9194   1.2690700e-16
       7764.1177   1.1739600e-16
       7765.3164   1.2188400e-16
       7766.5146   1.2431100e-16
       7767.7129   1.1876300e-16
       7768.9116   1.2302000e-16
       7770.1099   1.1526300e-16
       7771.3081   1.1821500e-16
       7772.5068   1.1689400e-16
       7773.7051   1.1929100e-16
       7774.9038   1.2324700e-16
       7776.1021   1.1630200e-16
       7777.3008   1.2645800e-16
       7778.4990   1.1321300e-16
       7779.6978   1.2545800e-16
       7780.8960   1.2140000e-16
       7782.0947   1.2101400e-16
       7783.2930   1.2102200e-16
       7784.4917   1.2918000e-16
       7785.6904   1.2271800e-16
       7786.8892   1.2972900e-16
       7788.0874   1.2771900e-16
       7789.2861   1.2651600e-16
       7790.4849   1.2403400e-16
       7791.6836   1.2800000e-16
       7792.8823   1.2170300e-16
       7794.0811   1.2623100e-16
       7795.2798   1.3679400e-16
       7796.4785   1.2344200e-16
       7797.6772   1.3203700e-16
       7798.8760   1.3206700e-16
       7800.0747   1.2336300e-16
       7801.2734   1.3065000e-16
       7802.4722   1.3379500e-16
       7803.6709   1.2548300e-16
       7804.8701   1.2866000e-16
       7806.0688   1.3015500e-16
       7807.2676   1.3004800e-16
       7808.4663   1.3143700e-16
       7809.6655   1.2328100e-16
       7810.8643   1.2809300e-16
       7812.0630   1.3403600e-16
       7813.2622   1.2957900e-16
       7814.4609   1.3336800e-16
       7815.6597   1.2994300e-16
       7816.8589   1.3024700e-16
       7818.0576   1.3254500e-16
       7819.2568   1.3272000e-16
       7820.4556   1.2443900e-16
       7821.6548   1.3585500e-16
       7822.8540   1.3892100e-16
       7824.0527   1.3184300e-16
       7825.2520   1.2788800e-16
       7826.4512   1.2658500e-16
       7827.6499   1.2923700e-16
       7828.8491   1.2893200e-16
       7830.0483   1.2897000e-16
       7831.2476   1.2445900e-16
       7832.4468   1.2905900e-16
       7833.6460   1.2770000e-16
       7834.8447   1.2994100e-16
       7836.0439   1.3033400e-16
       7837.2432   1.3015700e-16
       7838.4424   1.3274900e-16
       7839.6416   1.2700700e-16
       7840.8408   1.2998100e-16
       7842.0400   1.2928600e-16
       7843.2393   1.3078500e-16
       7844.4390   1.2862400e-16
       7845.6382   1.2892900e-16
       7846.8374   1.3392400e-16
       7848.0366   1.2879600e-16
       7849.2358   1.3956000e-16
       7850.4351   1.3368800e-16
       7851.6348   1.4108400e-16
       7852.8340   1.3477100e-16
       7854.0332   1.2941600e-16
       7855.2329   1.3014000e-16
       7856.4321   1.3416400e-16
       7857.6318   1.3375800e-16
       7858.8311   1.3487300e-16
       7860.0303   1.2529100e-16
       7861.2300   1.4176800e-16
       7862.4297   1.3717100e-16
       7863.6289   1.3384800e-16
       7864.8286   1.3288400e-16
       7866.0278   1.3682300e-16
       7867.2275   1.4084600e-16
       7868.4268   1.2899000e-16
       7869.6265   1.3819000e-16
       7870.8262   1.2404600e-16
       7872.0259   1.3397200e-16
       7873.2251   1.2755200e-16
       7874.4248   1.3227300e-16
       7875.6245   1.3293000e-16
       7876.8242   1.3826200e-16
       7878.0239   1.2865200e-16
       7879.2236   1.3511200e-16
       7880.4233   1.3502500e-16
       7881.6226   1.3856400e-16
       7882.8223   1.3382400e-16
       7884.0220   1.2930800e-16
       7885.2217   1.3806200e-16
       7886.4214   1.3967200e-16
       7887.6211   1.3399100e-16
       7888.8213   1.3585500e-16
       7890.0210   1.3552200e-16
       7891.2207   1.3429700e-16
       7892.4204   1.2882300e-16
       7893.6201   1.3375500e-16
       7894.8198   1.3088800e-16
       7896.0200   1.3229500e-16
       7897.2197   1.3316700e-16
       7898.4194   1.3256100e-16
       7899.6196   1.2260200e-16
       7900.8193   1.3093400e-16
       7902.0190   1.3452100e-16
       7903.2192   1.2939900e-16
       7904.4189   1.3479000e-16
       7905.6191   1.3728500e-16
       7906.8188   1.3851200e-16
       7908.0190   1.3001100e-16
       7909.2188   1.2598900e-16
       7910.4185   1.3680000e-16
       7911.6187   1.3491300e-16
       7912.8188   1.3453200e-16
       7914.0186   1.2485100e-16
       7915.2188   1.3924400e-16
       7916.4189   1.3677500e-16
       7917.6187   1.2996400e-16
       7918.8188   1.3608300e-16
       7920.0190   1.3212600e-16
       7921.2192   1.3111400e-16
       7922.4189   1.3062300e-16
       7923.6191   1.3752200e-16
       7924.8193   1.3337300e-16
       7926.0195   1.3187200e-16
       7927.2197   1.3372900e-16
       7928.4199   1.2897600e-16
       7929.6201   1.3560800e-16
       7930.8203   1.2951800e-16
       7932.0205   1.3286300e-16
       7933.2207   1.2787700e-16
       7934.4209   1.3208900e-16
       7935.6211   1.3019900e-16
       7936.8213   1.2845100e-16
       7938.0215   1.2516200e-16
       7939.2217   1.2769000e-16
       7940.4219   1.3191300e-16
       7941.6221   1.3013600e-16
       7942.8223   1.3234700e-16
       7944.0229   1.3419000e-16
       7945.2231   1.3048300e-16
       7946.4233   1.3810200e-16
       7947.6240   1.2865700e-16
       7948.8242   1.3242400e-16
       7950.0244   1.3007500e-16
       7951.2246   1.2416200e-16
       7952.4253   1.2968200e-16
       7953.6255   1.3185800e-16
       7954.8262   1.2844700e-16
       7956.0264   1.2383300e-16
       7957.2271   1.3354600e-16
       7958.4272   1.2149600e-16
       7959.6279   1.3324200e-16
       7960.8281   1.3382800e-16
       7962.0288   1.2468400e-16
       7963.2290   1.2973100e-16
       7964.4297   1.2699000e-16
       7965.6304   1.2333000e-16
       7966.8306   1.2656700e-16
       7968.0312   1.2595600e-16
       7969.2319   1.2760300e-16
       7970.4321   1.3603100e-16
       7971.6328   1.2875000e-16
       7972.8335   1.2784600e-16
       7974.0342   1.2579700e-16
       7975.2344   1.3157600e-16
       7976.4351   1.2384200e-16
       7977.6357   1.2549400e-16
       7978.8364   1.2044500e-16
       7980.0371   1.2247800e-16
       7981.2378   1.2250800e-16
       7982.4385   1.2937700e-16
       7983.6392   1.2905200e-16
       7984.8398   1.2900100e-16
       7986.0405   1.2669200e-16
       7987.2412   1.2584300e-16
       7988.4419   1.2299200e-16
       7989.6426   1.3006700e-16
       7990.8433   1.2557400e-16
       7992.0439   1.2126800e-16
       7993.2446   1.2739100e-16
       7994.4453   1.3172700e-16
       7995.6465   1.1497000e-16
       7996.8472   1.2227100e-16
       7998.0479   1.2381400e-16
       7999.2485   1.2185700e-16
       8000.4497   1.1942400e-16
       8001.6504   1.1513900e-16
       8002.8511   1.2276000e-16
       8004.0518   1.2769300e-16
       8005.2529   1.2448300e-16
       8006.4536   1.1675100e-16
       8007.6548   1.2056000e-16
       8008.8555   1.0999700e-16
       8010.0566   1.1827200e-16
       8011.2573   1.1529800e-16
       8012.4580   1.1065800e-16
       8013.6592   1.2099700e-16
       8014.8599   1.1622200e-16
       8016.0610   1.1202300e-16
       8017.2622   1.1227200e-16
       8018.4629   1.1869800e-16
       8019.6641   1.0844000e-16
       8020.8647   1.1289700e-16
       8022.0659   1.1618300e-16
       8023.2671   1.2210800e-16
       8024.4678   1.1871300e-16
       8025.6689   1.1714600e-16
       8026.8701   1.0866300e-16
       8028.0708   1.1054100e-16
       8029.2720   1.0954900e-16
       8030.4731   1.1245700e-16
       8031.6743   1.1231500e-16
       8032.8755   1.1346000e-16
       8034.0762   1.0623000e-16
       8035.2773   1.1055000e-16
       8036.4785   1.1185800e-16
       8037.6797   1.0866200e-16
       8038.8809   1.0826500e-16
       8040.0820   1.0911800e-16
       8041.2832   1.0707800e-16
       8042.4844   1.1000600e-16
       8043.6855   1.0256000e-16
       8044.8867   1.0395600e-16
       8046.0879   1.0704800e-16
       8047.2891   1.0178200e-16
       8048.4902   1.0318700e-16
       8049.6914   1.0605900e-16
       8050.8926   1.0378700e-16
       8052.0942   1.0668900e-16
       8053.2954   1.0065300e-16
       8054.4966   1.0240800e-16
       8055.6978   9.9578700e-17
       8056.8989   1.0264000e-16
       8058.1001   1.0086200e-16
       8059.3018   1.0555900e-16
       8060.5029   1.0678900e-16
       8061.7041   1.0136500e-16
       8062.9058   1.0005400e-16
       8064.1069   1.0300200e-16
       8065.3081   9.8932700e-17
       8066.5098   1.0232400e-16
       8067.7109   1.0132200e-16
       8068.9121   9.3809000e-17
       8070.1138   1.0105000e-16
       8071.3149   1.0306100e-16
       8072.5166   9.9022900e-17
       8073.7178   9.4899600e-17
       8074.9194   9.8151600e-17
       8076.1206   9.6377000e-17
       8077.3223   1.0237100e-16
       8078.5234   9.2499300e-17
       8079.7251   1.0209200e-16
       8080.9263   9.3487700e-17
       8082.1279   9.4222100e-17
       8083.3296   9.4157300e-17
       8084.5308   9.3226000e-17
       8085.7324   9.6989800e-17
       8086.9341   9.3681600e-17
       8088.1353   9.0086300e-17
       8089.3369   9.2982000e-17
       8090.5386   8.8868200e-17
       8091.7397   8.7469900e-17
       8092.9414   8.7394300e-17
       8094.1431   8.7013400e-17
       8095.3447   8.8538700e-17
       8096.5464   8.8421000e-17
       8097.7476   8.4730800e-17
       8098.9492   8.7445800e-17
       8100.1509   9.0592500e-17
       8101.3525   9.1929000e-17
       8102.5542   8.8113400e-17
       8103.7559   8.2696600e-17
       8104.9575   8.4446400e-17
       8106.1592   8.8077700e-17
       8107.3608   8.7699800e-17
       8108.5625   8.3103100e-17
       8109.7642   8.4398100e-17
       8110.9658   8.2446900e-17
       8112.1675   8.7284500e-17
       8113.3691   7.9563800e-17
       8114.5708   8.3292200e-17
       8115.7725   8.2753200e-17
       8116.9741   8.2908700e-17
       8118.1758   8.5497500e-17
       8119.3774   8.2526300e-17
       8120.5791   7.8843700e-17
       8121.7808   8.1221900e-17
       8122.9829   7.9522000e-17
       8124.1846   7.8615700e-17
       8125.3862   7.7322400e-17
       8126.5879   7.6921400e-17
       8127.7900   7.9158300e-17
       8128.9917   8.2683300e-17
       8130.1934   7.7834000e-17
       8131.3950   7.9976000e-17
       8132.5972   8.1155900e-17
       8133.7988   7.3848000e-17
       8135.0005   7.4420200e-17
       8136.2026   7.6774900e-17
       8137.4043   8.0552600e-17
       8138.6060   7.3344300e-17
       8139.8081   7.9177000e-17
       8141.0098   7.6242600e-17
       8142.2119   6.7377100e-17
       8143.4136   7.1729800e-17
       8144.6157   7.3738900e-17
       8145.8174   6.9659800e-17
       8147.0195   7.5668100e-17
       8148.2212   7.5938200e-17
       8149.4233   7.0599400e-17
       8150.6250   7.2168100e-17
       8151.8271   7.4302300e-17
       8153.0288   6.8039400e-17
       8154.2310   6.8318100e-17
       8155.4331   6.9884700e-17
       8156.6348   6.7667800e-17
       8157.8369   7.3864900e-17
       8159.0386   7.2418100e-17
       8160.2407   6.7192100e-17
       8161.4429   7.0113000e-17
       8162.6450   6.9175000e-17
       8163.8467   6.6407600e-17
       8165.0488   6.6919700e-17
       8166.2510   6.1501600e-17
       8167.4526   7.3703700e-17
       8168.6548   7.1282300e-17
       8169.8569   6.6464700e-17
       8171.0591   6.4979100e-17
       8172.2612   6.9912200e-17
       8173.4629   6.4416800e-17
       8174.6650   6.3902400e-17
       8175.8672   6.6195200e-17
       8177.0693   6.9785200e-17
       8178.2715   6.8134800e-17
       8179.4736   6.7831500e-17
       8180.6758   6.6677400e-17
       8181.8779   6.5087200e-17
       8183.0796   7.0300700e-17
       8184.2822   6.6945200e-17
       8185.4839   6.4621900e-17
       8186.6860   6.4915900e-17
       8187.8882   6.7000400e-17
       8189.0903   6.6172800e-17
       8190.2925   6.6776100e-17
       8191.4946   6.3852300e-17
       8192.6973   6.5491000e-17
       8193.8994   6.7987600e-17
       8195.1016   6.9891500e-17
       8196.3037   5.7511100e-17
       8197.5059   6.8664800e-17
       8198.7080   6.4397500e-17
       8199.9102   6.4156600e-17
       8201.1123   6.7582600e-17
       8202.3145   7.0869400e-17
       8203.5166   6.8208500e-17
       8204.7188   6.5153600e-17
       8205.9209   6.4894200e-17
       8207.1240   6.5557400e-17
       8208.3262   6.1789900e-17
       8209.5283   6.7808900e-17
       8210.7305   6.1898600e-17
       8211.9326   6.7074900e-17
       8213.1348   6.8364800e-17
       8214.3369   6.8660000e-17
       8215.5391   7.0198700e-17
       8216.7422   6.8037300e-17
       8217.9443   6.5613900e-17
       8219.1465   6.8114800e-17
       8220.3486   7.0659000e-17
       8221.5508   6.3562700e-17
       8222.7529   6.8304600e-17
       8223.9561   6.4163300e-17
       8225.1582   6.0386900e-17
       8226.3604   5.8906600e-17
       8227.5625   5.7599000e-17
       8228.7646   6.1567100e-17
       8229.9678   6.0543100e-17
       8231.1699   6.3976900e-17
       8232.3721   6.3412700e-17
       8233.5742   6.2537100e-17
       8234.7773   6.4478900e-17
       8235.9795   6.5731700e-17
       8237.1816   6.5271400e-17
       8238.3838   6.8612500e-17
       8239.5869   6.8820900e-17
       8240.7891   6.3343700e-17
       8241.9912   6.4758000e-17
       8243.1934   6.4441700e-17
       8244.3965   6.8489000e-17
       8245.5986   6.9245000e-17
       8246.8008   7.0867900e-17
       8248.0039   7.2788800e-17
       8249.2061   7.0094800e-17
       8250.4082   7.2509000e-17
       8251.6113   6.5202900e-17
       8252.8135   6.0273700e-17
       8254.0156   6.7364300e-17
       8255.2188   6.6827600e-17
       8256.4209   6.1444600e-17
       8257.6230   6.3414500e-17
       8258.8262   6.0633400e-17
       8260.0283   6.0042100e-17
       8261.2305   6.5323500e-17
       8262.4336   6.4223600e-17
       8263.6357   6.0471700e-17
       8264.8389   6.7674600e-17
       8266.0410   6.4105400e-17
       8267.2432   6.5355500e-17
       8268.4463   6.7686900e-17
       8269.6484   6.7003600e-17
       8270.8516   6.4446400e-17
       8272.0537   6.8311200e-17
       8273.2559   5.9879800e-17
       8274.4590   6.6624500e-17
       8275.6611   6.3288100e-17
       8276.8643   6.2388100e-17
       8278.0664   6.1644900e-17
       8279.2695   6.1786300e-17
       8280.4717   6.3285200e-17
       8281.6748   6.6202700e-17
       8282.8770   6.8532000e-17
       8284.0801   6.6510100e-17
       8285.2822   7.1622600e-17
       8286.4844   5.8602200e-17
       8287.6875   6.9808400e-17
       8288.8896   6.7304100e-17
       8290.0928   7.1510500e-17
       8291.2949   7.2169400e-17
       8292.4980   6.1307800e-17
       8293.7002   6.7468600e-17
       8294.9033   6.2663100e-17
       8296.1055   6.6234200e-17
       8297.3086   6.7664700e-17
       8298.5107   7.6706800e-17
       8299.7139   6.5345800e-17
       8300.9160   6.4208700e-17
       8302.1191   6.6160000e-17
       8303.3223   7.3252100e-17
       8304.5244   6.5979300e-17
       8305.7275   6.5194200e-17
       8306.9297   6.6957900e-17
       8308.1328   6.7796900e-17
       8309.3350   6.6213600e-17
       8310.5381   6.7319300e-17
       8311.7402   6.8319400e-17
       8312.9434   6.8017300e-17
       8314.1465   7.1262200e-17
       8315.3486   6.4518100e-17
       8316.5518   6.5425100e-17
       8317.7549   6.9621400e-17
       8318.9570   7.1442900e-17
       8320.1602   6.9571500e-17
       8321.3623   6.3132800e-17
       8322.5654   6.9257300e-17
       8323.7686   6.5023000e-17
       8324.9707   6.2787600e-17
       8326.1738   6.8491700e-17
       8327.3760   6.9904600e-17
       8328.5791   6.7391600e-17
       8329.7822   6.8473900e-17
       8330.9844   7.0667800e-17
       8332.1875   7.1095500e-17
       8333.3906   7.2553200e-17
       8334.5928   6.8716600e-17
       8335.7959   7.6255700e-17
       8336.9990   7.0080400e-17
       8338.2012   7.3189800e-17
       8339.4043   7.7386700e-17
       8340.6074   7.1516100e-17
       8341.8096   7.8226900e-17
       8343.0127   9.0102200e-17
       8344.2158   7.4359900e-17
       8345.4180   7.4091700e-17
       8346.6211   8.2457400e-17
       8347.8242   7.9626100e-17
       8349.0264   7.1729500e-17
       8350.2295   8.2051900e-17
       8351.4326   7.2698900e-17
       8352.6357   7.5595800e-17
       8353.8379   7.7343300e-17
       8355.0410   7.6404800e-17
       8356.2441   7.8751200e-17
       8357.4463   7.6895800e-17
       8358.6494   8.3398800e-17
       8359.8525   7.5860800e-17
       8361.0557   8.0647400e-17
       8362.2578   7.6530000e-17
       8363.4609   7.6386900e-17
       8364.6641   7.8732600e-17
       8365.8672   7.7299900e-17
       8367.0693   7.2104300e-17
       8368.2725   7.9420500e-17
       8369.4756   7.9024500e-17
       8370.6787   8.2217500e-17
       8371.8809   8.1782600e-17
       8373.0840   7.5967200e-17
       8374.2871   7.6032500e-17
       8375.4902   7.9539600e-17
       8376.6924   8.3324100e-17
       8377.8955   7.7749100e-17
       8379.0986   7.9309300e-17
       8380.3018   8.1976400e-17
       8381.5049   8.2738100e-17
       8382.7070   8.2594700e-17
       8383.9102   7.6091700e-17
       8385.1133   7.9078800e-17
       8386.3164   7.8836400e-17
       8387.5195   8.1715700e-17
       8388.7217   8.4237900e-17
       8389.9248   7.6482800e-17
       8391.1279   7.9597400e-17
       8392.3311   8.4052900e-17
       8393.5342   8.2268800e-17
       8394.7363   7.9291900e-17
       8395.9395   7.9102600e-17
       8397.1426   7.9979300e-17
       8398.3457   9.0122400e-17
       8399.5488   9.3874100e-17
       8400.7520   8.1420800e-17
       8401.9541   8.3204700e-17
       8403.1572   8.6073100e-17
       8404.3604   9.2253800e-17
       8405.5635   8.4937800e-17
       8406.7666   8.4391900e-17
       8407.9697   8.6138500e-17
       8409.1719   8.9462700e-17
       8410.3750   8.2706600e-17
       8411.5781   8.7774600e-17
       8412.7812   8.5789800e-17
       8413.9844   8.6843500e-17
       8415.1875   9.4725300e-17
       8416.3906   8.7073800e-17
       8417.5938   9.5107800e-17
       8418.7959   8.4001100e-17
       8419.9990   9.4406200e-17
       8421.2021   9.2213900e-17
       8422.4053   8.8028900e-17
       8423.6084   8.7889400e-17
       8424.8115   9.5241600e-17
       8426.0146   9.2513200e-17
       8427.2178   9.7467700e-17
       8428.4199   9.1117000e-17
       8429.6230   9.1134200e-17
       8430.8262   9.1015900e-17
       8432.0293   9.5040600e-17
       8433.2324   9.7054100e-17
       8434.4355   9.8431400e-17
       8435.6387   9.8458500e-17
       8436.8418   9.0765100e-17
       8438.0449   9.4422100e-17
       8439.2480   9.9661100e-17
       8440.4502   9.5233500e-17
       8441.6533   9.7166900e-17
       8442.8564   9.3262700e-17
       8444.0596   9.6792700e-17
       8445.2627   9.8711600e-17
       8446.4658   9.9512400e-17
       8447.6689   9.8704800e-17
       8448.8721   9.5051900e-17
       8450.0752   9.4294800e-17
       8451.2783   1.0293200e-16
       8452.4814   9.8692500e-17
       8453.6846   9.9383600e-17
       8454.8867   1.0431600e-16
       8456.0898   9.8558900e-17
       8457.2930   1.0248900e-16
       8458.4961   9.9347700e-17
       8459.6992   1.0189200e-16
       8460.9023   1.0611700e-16
       8462.1055   1.0387900e-16
       8463.3086   1.0575500e-16
       8464.5117   9.9966200e-17
       8465.7148   1.0429800e-16
       8466.9180   1.0967200e-16
       8468.1211   1.0597400e-16
       8469.3242   1.0604000e-16
       8470.5273   1.1156900e-16
       8471.7305   1.0339200e-16
       8472.9336   1.1348200e-16
       8474.1357   1.1061900e-16
       8475.3389   1.1060200e-16
       8476.5420   1.0570700e-16
       8477.7451   1.1275700e-16
       8478.9482   1.0902900e-16
       8480.1514   1.1355300e-16
       8481.3545   1.1285200e-16
       8482.5576   1.1365900e-16
       8483.7607   1.1351500e-16
       8484.9639   1.1262500e-16
       8486.1670   1.1309600e-16
       8487.3701   1.1926000e-16
       8488.5732   1.1511800e-16
       8489.7764   1.1640900e-16
       8490.9795   1.1937700e-16
       8492.1826   1.1163600e-16
       8493.3857   1.2356100e-16
       8494.5889   1.1549300e-16
       8495.7920   1.2030300e-16
       8496.9951   1.1183600e-16
       8498.1982   1.2140600e-16
       8499.4014   1.2333800e-16
       8500.6045   1.2644700e-16
       8501.8076   1.2627800e-16
       8503.0107   1.2245300e-16
       8504.2139   1.2354400e-16
       8505.4170   1.1707400e-16
       8506.6201   1.2022200e-16
       8507.8232   1.2788600e-16
       8509.0264   1.3048400e-16
       8510.2285   1.2775100e-16
       8511.4316   1.3003900e-16
       8512.6348   1.2671300e-16
       8513.8379   1.2628700e-16
       8515.0410   1.2923300e-16
       8516.2441   1.3762100e-16
       8517.4473   1.2833500e-16
       8518.6504   1.2614600e-16
       8519.8535   1.2629500e-16
       8521.0566   1.2948900e-16
       8522.2598   1.3455700e-16
       8523.4629   1.3589000e-16
       8524.6660   1.3479500e-16
       8525.8691   1.2927500e-16
       8527.0723   1.3626100e-16
       8528.2754   1.3554400e-16
       8529.4785   1.3058000e-16
       8530.6816   1.3381900e-16
       8531.8848   1.3317800e-16
       8533.0879   1.3654500e-16
       8534.2910   1.4199800e-16
       8535.4941   1.3729800e-16
       8536.6973   1.4444100e-16
       8537.9004   1.3164500e-16
       8539.1035   1.4229600e-16
       8540.3066   1.3494200e-16
       8541.5098   1.4428400e-16
       8542.7129   1.4551500e-16
       8543.9160   1.3398100e-16
       8545.1191   1.4450700e-16
       8546.3223   1.3896300e-16
       8547.5254   1.3888700e-16
       8548.7285   1.4705700e-16
       8549.9316   1.4784800e-16
       8551.1348   1.5051000e-16
       8552.3379   1.4872000e-16
       8553.5410   1.4350300e-16
       8554.7441   1.4941400e-16
       8555.9473   1.4523700e-16
       8557.1504   1.5403100e-16
       8558.3535   1.5139500e-16
       8559.5566   1.4849400e-16
       8560.7598   1.5417700e-16
       8561.9629   1.5498100e-16
       8563.1660   1.5245600e-16
       8564.3691   1.4833300e-16
       8565.5723   1.5023900e-16
       8566.7754   1.4744300e-16
       8567.9785   1.5069300e-16
       8569.1816   1.4636200e-16
       8570.3848   1.4838300e-16
       8571.5869   1.5038200e-16
       8572.7900   1.5106300e-16
       8573.9932   1.4651500e-16
       8575.1963   1.5638600e-16
       8576.3994   1.5463800e-16
       8577.6025   1.4755000e-16
       8578.8057   1.5599700e-16
       8580.0088   1.4864700e-16
       8581.2119   1.5110600e-16
       8582.4150   1.4780900e-16
       8583.6182   1.5896300e-16
       8584.8213   1.5325100e-16
       8586.0244   1.5591700e-16
       8587.2275   1.5318600e-16
       8588.4307   1.5601100e-16
       8589.6338   1.5276200e-16
       8590.8369   1.5552200e-16
       8592.0400   1.5632500e-16
       8593.2432   1.5937200e-16
       8594.4463   1.5652000e-16
       8595.6494   1.5552000e-16
       8596.8525   1.5862500e-16
       8598.0557   1.6087900e-16
       8599.2588   1.6287800e-16
       8600.4619   1.6482800e-16
       8601.6650   1.6190400e-16
       8602.8682   1.6234900e-16
       8604.0703   1.5057800e-16
       8605.2734   1.5767400e-16
       8606.4766   1.5763300e-16
       8607.6797   1.6342500e-16
       8608.8828   1.6596500e-16
       8610.0859   1.6521400e-16
       8611.2891   1.6676900e-16
       8612.4922   1.6263200e-16
       8613.6953   1.6699500e-16
       8614.8984   1.7163900e-16
       8616.1016   1.6966600e-16
       8617.3047   1.7251300e-16
       8618.5078   1.7005300e-16
       8619.7109   1.6529600e-16
       8620.9141   1.6768800e-16
       8622.1172   1.7544100e-16
       8623.3193   1.7275500e-16
       8624.5225   1.7507800e-16
       8625.7256   1.6927300e-16
       8626.9287   1.7518500e-16
       8628.1318   1.7217700e-16
       8629.3350   1.7527200e-16
       8630.5381   1.7896200e-16
       8631.7412   1.8187600e-16
       8632.9443   1.7467200e-16
       8634.1475   1.8451000e-16
       8635.3506   1.8605000e-16
       8636.5537   1.8458300e-16
       8637.7559   1.8346300e-16
       8638.9590   1.8377200e-16
       8640.1621   1.8604500e-16
       8641.3652   1.7921400e-16
       8642.5684   1.8430700e-16
       8643.7715   1.8213200e-16
       8644.9746   1.8096700e-16
       8646.1777   1.8712100e-16
       8647.3809   1.8157500e-16
       8648.5840   1.8251400e-16
       8649.7861   1.8011500e-16
       8650.9893   1.8151100e-16
       8652.1924   1.8380500e-16
       8653.3955   1.8578800e-16
       8654.5986   1.9161900e-16
       8655.8018   1.8533800e-16
       8657.0049   1.8926700e-16
       8658.2070   1.9361200e-16
       8659.4102   1.8543900e-16
       8660.6133   1.8174800e-16
       8661.8164   1.8241100e-16
       8663.0195   1.9331000e-16
       8664.2227   1.9427400e-16
       8665.4258   1.9267200e-16
       8666.6289   1.8206900e-16
       8667.8311   1.8390400e-16
       8669.0342   1.9654800e-16
       8670.2373   1.8552400e-16
       8671.4404   1.9145700e-16
       8672.6436   1.8576100e-16
       8673.8467   1.9556600e-16
       8675.0488   1.9581600e-16
       8676.2520   1.9171600e-16
       8677.4551   1.9580700e-16
       8678.6582   1.9125600e-16
       8679.8613   1.9449600e-16
       8681.0645   1.9366700e-16
       8682.2666   1.9479900e-16
       8683.4697   1.9586400e-16
       8684.6729   2.0572800e-16
       8685.8760   1.9467400e-16
       8687.0791   1.9428900e-16
       8688.2812   1.9641800e-16
       8689.4844   1.9835200e-16
       8690.6875   1.9882800e-16
       8691.8906   1.9984300e-16
       8693.0938   1.9734600e-16
       8694.2969   1.9948000e-16
       8695.4990   1.9817800e-16
       8696.7021   1.9369800e-16
       8697.9053   1.9904100e-16
       8699.1084   1.9725700e-16
       8700.3105   1.9239900e-16
       8701.5137   1.9320700e-16
       8702.7168   2.0671500e-16
       8703.9199   2.0743400e-16
       8705.1230   2.0378800e-16
       8706.3252   2.0414900e-16
       8707.5283   2.0616800e-16
       8708.7314   2.0280300e-16
       8709.9346   1.9930600e-16
       8711.1367   1.9949800e-16
       8712.3398   2.0003600e-16
       8713.5430   1.9929000e-16
       8714.7451   1.9624200e-16
       8715.9482   1.9936400e-16
       8717.1514   2.0664800e-16
       8718.3545   2.0310700e-16
       8719.5566   2.0679700e-16
       8720.7598   2.0754900e-16
       8721.9629   2.0150700e-16
       8723.1660   2.0670700e-16
       8724.3682   2.0726400e-16
       8725.5713   2.0831700e-16
       8726.7744   2.0327000e-16
       8727.9766   2.0743100e-16
       8729.1797   2.0613000e-16
       8730.3828   2.0106100e-16
       8731.5859   2.0221900e-16
       8732.7881   2.0278300e-16
       8733.9912   2.0622000e-16
       8735.1943   2.0071000e-16
       8736.3965   2.0341400e-16
       8737.5996   2.0770200e-16
       8738.8027   2.1068900e-16
       8740.0049   2.0517700e-16
       8741.2080   2.1131300e-16
       8742.4111   2.0847900e-16
       8743.6133   2.1214300e-16
       8744.8164   2.1191500e-16
       8746.0195   2.1847700e-16
       8747.2217   2.1066200e-16
       8748.4248   2.1852000e-16
       8749.6279   2.2408400e-16
       8750.8301   2.0960500e-16
       8752.0332   2.1634900e-16
       8753.2354   2.1083200e-16
       8754.4385   2.1763000e-16
       8755.6416   2.2187600e-16
       8756.8438   2.1086400e-16
       8758.0469   2.1753800e-16
       8759.2490   2.1854200e-16
       8760.4521   2.2233700e-16
       8761.6553   2.1976900e-16
       8762.8574   2.2400900e-16
       8764.0605   2.1387400e-16
       8765.2627   2.1692100e-16
       8766.4658   2.3186600e-16
       8767.6689   2.3808400e-16
       8768.8711   2.2147200e-16
       8770.0742   2.2535300e-16
       8771.2764   2.2546900e-16
       8772.4795   2.2305600e-16
       8773.6816   2.2268900e-16
       8774.8848   2.2348500e-16
       8776.0869   2.2769600e-16
       8777.2900   2.2299300e-16
       8778.4932   2.2401400e-16
       8779.6953   2.2317100e-16
       8780.8984   2.3034900e-16
       8782.1006   2.2560700e-16
       8783.3037   2.3168900e-16
       8784.5059   2.3767400e-16
       8785.7090   2.3420400e-16
       8786.9111   2.3158300e-16
       8788.1143   2.3133300e-16
       8789.3164   2.3274500e-16
       8790.5195   2.3305500e-16
       8791.7217   2.3667400e-16
       8792.9248   2.3395300e-16
       8794.1270   2.3225400e-16
       8795.3301   2.3173300e-16
       8796.5322   2.3482600e-16
       8797.7354   2.3078000e-16
       8798.9375   2.3365100e-16
       8800.1406   2.4301900e-16
       8801.3428   2.3022500e-16
       8802.5449   2.3310400e-16
       8803.7480   2.3599600e-16
       8804.9502   2.3499000e-16
       8806.1533   2.3846600e-16
       8807.3555   2.2940700e-16
       8808.5586   2.3548800e-16
       8809.7607   2.2766800e-16
       8810.9639   2.3338900e-16
       8812.1660   2.3239900e-16
       8813.3682   2.3495500e-16
       8814.5713   2.3509900e-16
       8815.7734   2.2537700e-16
       8816.9766   2.3315600e-16
       8818.1787   2.3180600e-16
       8819.3809   2.2811700e-16
       8820.5840   2.3291200e-16
       8821.7861   2.3001200e-16
       8822.9883   2.3489600e-16
       8824.1914   2.3191200e-16
       8825.3936   2.3516900e-16
       8826.5957   2.2896422e-16
       8827.7988   2.2835482e-16
       8829.0010   2.2774588e-16
       8830.2031   2.2713698e-16
       8831.4062   2.2652758e-16
       8832.6084   2.2591864e-16
       8833.8105   2.2530975e-16
       8835.0137   2.2470030e-16
       8836.2158   2.2409141e-16
       8837.4180   2.3017100e-16
       8838.6211   2.2308200e-16
       8839.8232   2.3003700e-16
       8841.0254   2.2325300e-16
       8842.2275   2.2768200e-16
       8843.4307   2.1947900e-16
       8844.6328   2.2095400e-16
       8845.8350   2.2058300e-16
       8847.0381   2.2084200e-16
       8848.2402   2.2063500e-16
       8849.4424   2.2106800e-16
       8850.6445   2.1697300e-16
       8851.8477   2.1784100e-16
       8853.0498   2.1643500e-16
       8854.2520   2.1608400e-16
       8855.4541   2.1356000e-16
       8856.6562   2.1679400e-16
       8857.8594   2.1251600e-16
       8859.0615   2.1355500e-16
       8860.2637   2.1537600e-16
       8861.4658   2.1501700e-16
       8862.6680   2.1555000e-16
       8863.8711   2.1173600e-16
       8865.0732   2.1713900e-16
       8866.2754   2.1434100e-16
       8867.4775   2.2209600e-16
       8868.6797   2.1839300e-16
       8869.8818   2.0949200e-16
       8871.0850   2.1186800e-16
       8872.2871   2.1130200e-16
       8873.4893   2.1326200e-16
       8874.6914   2.1780000e-16
       8875.8936   2.1861600e-16
       8877.0957   2.0947700e-16
       8878.2979   2.1303100e-16
       8879.5000   2.1349300e-16
       8880.7021   2.1493000e-16
       8881.9053   2.1731800e-16
       8883.1074   2.1766500e-16
       8884.3096   2.0325400e-16
       8885.5117   2.1487800e-16
       8886.7139   2.0113400e-16
       8887.9160   2.0552700e-16
       8889.1182   2.1249900e-16
       8890.3203   2.0686500e-16
       8891.5225   2.0644000e-16
       8892.7246   2.1877100e-16
       8893.9268   2.1003900e-16
       8895.1289   2.1842300e-16
       8896.3311   2.1793800e-16
       8897.5332   2.0647000e-16
       8898.7354   2.1148900e-16
       8899.9375   2.1054600e-16
       8901.1396   2.1262900e-16
       8902.3418   2.1549800e-16
       8903.5439   2.1494400e-16
       8904.7461   2.0524600e-16
       8905.9482   2.1047600e-16
       8907.1504   2.1232800e-16
       8908.3525   2.0688400e-16
       8909.5547   2.1087400e-16
       8910.7568   2.1107000e-16
       8911.9590   2.1227500e-16
       8913.1611   2.1456000e-16
       8914.3633   1.9910800e-16
       8915.5645   2.1100100e-16
       8916.7666   2.0939400e-16
       8917.9688   2.1313600e-16
       8919.1709   2.1565700e-16
       8920.3730   2.0577900e-16
       8921.5752   2.1824600e-16
       8922.7773   2.0012500e-16
       8923.9795   2.1499500e-16
       8925.1816   2.0455200e-16
       8926.3828   2.1048800e-16
       8927.5850   2.0487000e-16
       8928.7871   2.0274800e-16
       8929.9893   2.1409000e-16
       8931.1914   2.0827300e-16
       8932.3936   1.9892700e-16
       8933.5947   2.0957200e-16
       8934.7969   2.1069200e-16
       8935.9990   2.1083900e-16
       8937.2012   2.0898400e-16
       8938.4023   2.0683400e-16
       8939.6045   2.1049900e-16
       8940.8066   2.1554300e-16
       8942.0088   2.1259600e-16
       8943.2109   2.0997600e-16
       8944.4121   2.0467100e-16
       8945.6143   2.1421000e-16
       8946.8164   1.9626200e-16
       8948.0186   2.0190300e-16
       8949.2197   1.9991300e-16
       8950.4219   2.0335200e-16
       8951.6240   1.9964200e-16
       8952.8252   2.0394300e-16
       8954.0273   2.0700800e-16
       8955.2295   2.0928900e-16
       8956.4307   1.9983400e-16
       8957.6328   2.0648100e-16
       8958.8350   2.0716700e-16
       8960.0361   1.9753300e-16
       8961.2383   2.0019100e-16
       8962.4404   1.9908600e-16
       8963.6416   1.9671100e-16
       8964.8438   1.9728500e-16
       8966.0449   2.0376600e-16
       8967.2471   2.0284900e-16
       8968.4492   1.9375800e-16
       8969.6504   1.9259700e-16
       8970.8525   1.9844000e-16
       8972.0537   1.9887800e-16
       8973.2559   1.9708000e-16
       8974.4580   1.9899000e-16
       8975.6592   1.9608600e-16
       8976.8613   2.0058500e-16
       8978.0625   1.9657000e-16
       8979.2646   1.9280900e-16
       8980.4658   1.9411500e-16
       8981.6680   1.9637800e-16
       8982.8691   1.9834000e-16
       8984.0713   1.9729600e-16
       8985.2725   1.9211500e-16
       8986.4746   1.9930200e-16
       8987.6758   1.9854600e-16
       8988.8779   1.9211300e-16
       8990.0791   1.9302400e-16
       8991.2812   1.9915400e-16
       8992.4824   2.0481100e-16
       8993.6846   2.0032100e-16
       8994.8857   2.0552300e-16
       8996.0869   2.0323400e-16
       8997.2891   1.9630500e-16
       8998.4902   1.9684200e-16
       8999.6924   1.9174400e-16
       9000.8936   1.9667400e-16
       9002.0947   1.9098800e-16
       9003.2969   1.9360000e-16
       9004.4980   1.9478900e-16
       9005.6992   1.9279100e-16
       9006.9014   1.8913000e-16
       9008.1025   2.0938900e-16
       9009.3047   1.9884600e-16
       9010.5059   2.0389100e-16
       9011.7070   2.0020800e-16
       9012.9092   1.9652600e-16
       9014.1104   1.9137300e-16
       9015.3115   1.9421100e-16
       9016.5127   1.9778100e-16
       9017.7148   2.0522300e-16
       9018.9160   1.9965400e-16
       9020.1172   1.9404900e-16
       9021.3184   2.0442700e-16
       9022.5205   1.9460400e-16
       9023.7217   1.9332100e-16
       9024.9229   1.9696700e-16
       9026.1240   2.0350800e-16
       9027.3262   1.9688600e-16
       9028.5273   1.9467900e-16
       9029.7285   1.9514500e-16
       9030.9297   1.9286800e-16
       9032.1309   1.9387100e-16
       9033.3320   1.9411400e-16
       9034.5342   1.9720900e-16
       9035.7354   1.9606400e-16
       9036.9365   1.9014300e-16
       9038.1377   1.8818200e-16
       9039.3389   1.8889200e-16
       9040.5400   1.8070800e-16
       9041.7412   1.8449200e-16
       9042.9434   1.9047000e-16
       9044.1445   2.0245600e-16
       9045.3457   1.9371500e-16
       9046.5469   1.9970500e-16
       9047.7480   1.8103500e-16
       9048.9492   1.8971300e-16
       9050.1504   1.9092200e-16
       9051.3516   1.9146300e-16
       9052.5527   1.8862800e-16
       9053.7539   1.8585100e-16
       9054.9551   1.8801100e-16
       9056.1562   1.8962700e-16
       9057.3574   1.8833000e-16
       9058.5586   1.8462100e-16
       9059.7598   1.8581000e-16
       9060.9609   1.8617700e-16
       9062.1621   1.8363700e-16
       9063.3633   1.8586600e-16
       9064.5645   1.7974400e-16
       9065.7656   1.8035200e-16
       9066.9668   1.7736900e-16
       9068.1680   1.8176400e-16
       9069.3691   1.8209500e-16
       9070.5693   1.8170500e-16
       9071.7705   1.8273200e-16
       9072.9717   1.8649600e-16
       9074.1729   1.7866700e-16
       9075.3740   1.7990000e-16
       9076.5752   1.8505900e-16
       9077.7764   1.6918000e-16
       9078.9766   1.7259900e-16
       9080.1777   1.7810900e-16
       9081.3789   1.7582400e-16
       9082.5801   1.7942300e-16
       9083.7812   1.7314100e-16
       9084.9814   1.7211700e-16
       9086.1826   1.7835600e-16
       9087.3838   1.8195500e-16
       9088.5850   1.7590900e-16
       9089.7861   1.8575200e-16
       9090.9863   1.7127500e-16
       9092.1875   1.6893400e-16
       9093.3887   1.7559100e-16
       9094.5889   1.7734500e-16
       9095.7900   1.7192800e-16
       9096.9912   1.6676400e-16
       9098.1924   1.7069400e-16
       9099.3926   1.7269600e-16
       9100.5938   1.6522000e-16
       9101.7949   1.6727200e-16
       9102.9951   1.7412500e-16
       9104.1963   1.7437200e-16
       9105.3975   1.6601100e-16
       9106.5977   1.6291000e-16
       9107.7988   1.6652700e-16
       9108.9990   1.7185500e-16
       9110.2002   1.6787000e-16
       9111.4014   1.6955400e-16
       9112.6016   1.6885300e-16
       9113.8027   1.6803500e-16
       9115.0029   1.6570300e-16
       9116.2041   1.6304300e-16
       9117.4043   1.6678500e-16
       9118.6055   1.6973500e-16
       9119.8057   1.6273100e-16
       9121.0068   1.6798800e-16
       9122.2070   1.6638300e-16
       9123.4082   1.6354200e-16
       9124.6084   1.6096200e-16
       9125.8096   1.6130500e-16
       9127.0098   1.5656300e-16
       9128.2109   1.5825700e-16
       9129.4111   1.6446800e-16
       9130.6113   1.6540400e-16
       9131.8125   1.6351200e-16
       9133.0127   1.6006700e-16
       9134.2139   1.6044100e-16
       9135.4141   1.6849000e-16
       9136.6143   1.5995100e-16
       9137.8154   1.5576700e-16
       9139.0156   1.6116200e-16
       9140.2158   1.5835700e-16
       9141.4170   1.5926200e-16
       9142.6172   1.6123200e-16
       9143.8184   1.5605100e-16
       9145.0186   1.5312700e-16
       9146.2188   1.5709500e-16
       9147.4189   1.5739700e-16
       9148.6201   1.6009900e-16
       9149.8203   1.5563500e-16
       9151.0205   1.5499700e-16
       9152.2207   1.5895800e-16
       9153.4219   1.4829600e-16
       9154.6221   1.4919400e-16
       9155.8223   1.5498800e-16
       9157.0225   1.5630100e-16
       9158.2227   1.5724700e-16
       9159.4238   1.5623800e-16
       9160.6240   1.5117200e-16
       9161.8242   1.5523700e-16
       9163.0244   1.5955300e-16
       9164.2246   1.6050700e-16
       9165.4248   1.5244500e-16
       9166.6260   1.5037700e-16
       9167.8262   1.4826700e-16
       9169.0264   1.5156900e-16
       9170.2266   1.5287200e-16
       9171.4268   1.4678900e-16
       9172.6270   1.4642400e-16
       9173.8271   1.4867600e-16
       9175.0273   1.4993600e-16
       9176.2275   1.5219800e-16
       9177.4277   1.4869800e-16
       9178.6279   1.4898300e-16
       9179.8281   1.4983900e-16
       9181.0283   1.4568100e-16
       9182.2285   1.5562900e-16
       9183.4287   1.5518400e-16
       9184.6289   1.5074400e-16
       9185.8291   1.4858500e-16
       9187.0293   1.5453600e-16
       9188.2295   1.5905300e-16
       9189.4297   1.4975500e-16
       9190.6299   1.5088100e-16
       9191.8301   1.5217300e-16
       9193.0303   1.4509200e-16
       9194.2295   1.4881200e-16
       9195.4297   1.4178200e-16
       9196.6299   1.4846400e-16
       9197.8301   1.5397500e-16
       9199.0303   1.4978200e-16
       9200.2305   1.4928300e-16
       9201.4297   1.5524600e-16
       9202.6299   1.5070200e-16
       9203.8301   1.5542500e-16
       9205.0303   1.4757900e-16
       9206.2305   1.5008300e-16
       9207.4297   1.5207500e-16
       9208.6299   1.4814500e-16
       9209.8301   1.5026400e-16
       9211.0303   1.4737300e-16
       9212.2295   1.4807700e-16
       9213.4297   1.4049400e-16
       9214.6299   1.4653200e-16
       9215.8291   1.4450100e-16
       9217.0293   1.4180300e-16
       9218.2295   1.4375300e-16
       9219.4287   1.4353500e-16
       9220.6289   1.4394100e-16
       9221.8291   1.5325800e-16
       9223.0283   1.4376600e-16
       9224.2285   1.4871900e-16
       9225.4277   1.4778100e-16
       9226.6279   1.4752600e-16
       9227.8281   1.4640100e-16
       9229.0273   1.4258100e-16
       9230.2275   1.3833400e-16
       9231.4268   1.4826900e-16
       9232.6270   1.4381400e-16
       9233.8262   1.4317500e-16
       9235.0264   1.4106500e-16
       9236.2256   1.4554200e-16
       9237.4258   1.3861700e-16
       9238.6250   1.4596400e-16
       9239.8252   1.4148700e-16
       9241.0244   1.4481400e-16
       9242.2236   1.4009500e-16
       9243.4238   1.3654600e-16
       9244.6230   1.3934600e-16
       9245.8232   1.3791700e-16
       9247.0225   1.3921700e-16
       9248.2227   1.4307100e-16
       9249.4219   1.4165800e-16
       9250.6211   1.3697000e-16
       9251.8213   1.4348300e-16
       9253.0205   1.3750300e-16
       9254.2197   1.4164600e-16
       9255.4189   1.4040200e-16
       9256.6191   1.4157600e-16
       9257.8184   1.3566900e-16
       9259.0176   1.3471300e-16
       9260.2178   1.3811000e-16
       9261.4170   1.3110400e-16
       9262.6162   1.3503500e-16
       9263.8154   1.3557700e-16
       9265.0156   1.3598300e-16
       9266.2148   1.3500600e-16
       9267.4141   1.3541600e-16
       9268.6133   1.3592600e-16
       9269.8125   1.3227700e-16
       9271.0117   1.3771700e-16
       9272.2119   1.3881300e-16
       9273.4111   1.2918800e-16
       9274.6104   1.3304100e-16
       9275.8096   1.3222900e-16
       9277.0088   1.3188500e-16
       9278.2080   1.3489500e-16
       9279.4072   1.3817900e-16
       9280.6064   1.3047900e-16
       9281.8057   1.3930600e-16
       9283.0049   1.3634500e-16
       9284.2041   1.4091800e-16
       9285.4033   1.3747800e-16
       9286.6025   1.3439600e-16
       9287.8018   1.3718300e-16
       9289.0010   1.3417900e-16
       9290.2002   1.3341100e-16
       9291.3994   1.3501400e-16
       9292.5986   1.4961700e-16
       9293.7979   1.6024400e-16
       9294.9971   1.5235900e-16
       9296.1963   1.5407300e-16
       9297.3955   1.4322800e-16
       9298.5947   1.3859200e-16
       9299.7939   1.3871600e-16
       9300.9922   1.3002000e-16
       9302.1914   1.3307400e-16
       9303.3906   1.3670500e-16
       9304.5898   1.3433800e-16
       9305.7891   1.3161600e-16
       9306.9883   1.2308500e-16
       9308.1865   1.2547400e-16
       9309.3857   1.3075800e-16
       9310.5850   1.3575000e-16
       9311.7842   1.4208600e-16
       9312.9824   1.3435400e-16
       9314.1816   1.1977400e-16
       9315.3809   1.2955500e-16
       9316.5791   1.3857800e-16
       9317.7783   1.4017300e-16
       9318.9775   1.4543200e-16
       9320.1758   1.4121700e-16
       9321.3750   1.3023900e-16
       9322.5742   1.1613400e-16
       9323.7725   1.2444900e-16
       9324.9717   1.4492500e-16
       9326.1709   1.4201700e-16
       9327.3691   1.3201400e-16
       9328.5684   1.4030600e-16
       9329.7666   1.3952400e-16
       9330.9658   1.3028400e-16
       9332.1641   1.2758700e-16
       9333.3633   1.3503200e-16
       9334.5615   1.3864000e-16
       9335.7607   1.5224700e-16
       9336.9590   1.3690800e-16
       9338.1582   1.3513400e-16
       9339.3564   1.2974600e-16
       9340.5557   1.3507800e-16
       9341.7539   1.2255100e-16
       9342.9531   1.2646300e-16
       9344.1514   1.4384100e-16
       9345.3496   1.6914900e-16
       9346.5488   1.6856900e-16
       9347.7471   1.4754700e-16
       9348.9453   1.4407200e-16
       9350.1445   1.4170400e-16
       9351.3428   1.2302700e-16
       9352.5410   1.2796200e-16
       9353.7402   1.3369200e-16
       9354.9385   1.4486600e-16
       9356.1367   1.3899700e-16
       9357.3359   1.3597400e-16
       9358.5342   1.4713800e-16
       9359.7324   1.5591700e-16
       9360.9307   1.5743500e-16
       9362.1299   1.4355300e-16
       9363.3281   1.3812500e-16
       9364.5264   1.3772900e-16
       9365.7246   1.4517700e-16
       9366.9229   1.3723400e-16
       9368.1211   1.3256800e-16
       9369.3203   1.3911300e-16
       9370.5186   1.4409400e-16
       9371.7168   1.5125200e-16
       9372.9150   1.6409600e-16
       9374.1133   1.2992200e-16
       9375.3115   1.3068400e-16
       9376.5098   1.2339600e-16
       9377.7080   1.4609000e-16
       9378.9062   1.2029100e-16
       9380.1045   1.2392500e-16
       9381.3027   1.4957500e-16
       9382.5010   1.4956700e-16
       9383.6992   1.4326300e-16
       9384.8975   1.2788700e-16
       9386.0957   1.3360000e-16
       9387.2939   1.3550700e-16
       9388.4922   1.4084000e-16
       9389.6904   1.4227100e-16
       9390.8887   1.3921200e-16
       9392.0869   1.3710600e-16
       9393.2852   1.3368100e-16
       9394.4824   1.3557800e-16
       9395.6807   1.3687400e-16
       9396.8789   1.3150000e-16
       9398.0771   1.3581300e-16
       9399.2754   1.3009400e-16
       9400.4727   1.4498700e-16
       9401.6709   1.4110100e-16
       9402.8691   1.4103000e-16
       9404.0674   1.2928000e-16
       9405.2656   1.3565400e-16
       9406.4629   1.2828900e-16
       9407.6611   1.2893600e-16
       9408.8594   1.2578400e-16
       9410.0566   1.2821300e-16
       9411.2549   1.3296200e-16
       9412.4531   1.3938700e-16
       9413.6504   1.3542700e-16
       9414.8486   1.2822600e-16
       9416.0469   1.3285600e-16
       9417.2441   1.3129300e-16
       9418.4424   1.3247000e-16
       9419.6396   1.3193900e-16
       9420.8379   1.3516100e-16
       9422.0352   1.3780100e-16
       9423.2334   1.2831900e-16
       9424.4316   1.2392000e-16
       9425.6289   1.0735400e-16
       9426.8271   1.2364000e-16
       9428.0244   1.3441100e-16
       9429.2217   1.3798800e-16
       9430.4199   1.4251100e-16
       9431.6172   1.3422100e-16
       9432.8154   1.2738500e-16
       9434.0127   1.2179200e-16
       9435.2109   1.1390900e-16
       9436.4082   1.2408000e-16
       9437.6055   1.2024000e-16
       9438.8037   1.2667900e-16
       9440.0010   1.2134800e-16
       9441.1982   1.2537600e-16
       9442.3965   1.2608900e-16
       9443.5938   1.1789700e-16
       9444.7910   1.3516500e-16
       9445.9893   1.2700800e-16
       9447.1865   1.2351300e-16
       9448.3838   1.1857400e-16
       9449.5811   1.2967700e-16
       9450.7783   1.2173900e-16
       9451.9766   1.2057800e-16
       9453.1738   1.1681200e-16
       9454.3711   1.1615500e-16
       9455.5684   1.2952900e-16
       9456.7656   1.2701000e-16
       9457.9639   1.2561400e-16
       9459.1611   1.1451800e-16
       9460.3584   1.2270200e-16
       9461.5557   1.3237900e-16
       9462.7529   1.2827500e-16
       9463.9502   1.2664300e-16
       9465.1475   1.1784300e-16
       9466.3447   1.1767200e-16
       9467.5420   1.1399900e-16
       9468.7393   1.1763300e-16
       9469.9365   1.2186100e-16
       9471.1338   1.2155500e-16
       9472.3311   1.1247700e-16
       9473.5283   1.0446300e-16
       9474.7256   1.2637100e-16
       9475.9229   1.1458600e-16
       9477.1201   1.1427800e-16
       9478.3174   1.0888600e-16
       9479.5137   9.9472500e-17
       9480.7109   1.0191200e-16
       9481.9082   1.1631000e-16
       9483.1055   1.2758200e-16
       9484.3027   1.2543900e-16
       9485.5000   1.1814700e-16
       9486.6963   1.1781600e-16
       9487.8936   1.1628400e-16
       9489.0908   1.1480500e-16
       9490.2881   1.0857500e-16
       9491.4844   1.1091800e-16
       9492.6816   1.0789500e-16
       9493.8789   1.1491700e-16
       9495.0762   1.1572900e-16
       9496.2725   1.1234700e-16
       9497.4697   1.1048400e-16
       9498.6660   1.1534600e-16
       9499.8633   1.1139300e-16
       9501.0605   1.2039500e-16
       9502.2568   1.3249900e-16
       9503.4541   1.2443900e-16
       9504.6504   1.1421300e-16
       9505.8477   1.0760300e-16
       9507.0449   1.1033600e-16
       9508.2412   1.1076200e-16
       9509.4385   1.0855000e-16
       9510.6348   1.1066100e-16
       9511.8320   1.1018300e-16
       9513.0283   1.0972000e-16
       9514.2256   1.0769200e-16
       9515.4219   1.0080400e-16
       9516.6182   1.1230400e-16
       9517.8154   1.0731800e-16
       9519.0117   1.1615300e-16
       9520.2090   1.0163000e-16
       9521.4053   1.0889700e-16
       9522.6016   1.1388600e-16
       9523.7988   1.2051300e-16
       9524.9951   1.1778700e-16
       9526.1914   1.1231900e-16
       9527.3887   1.0196100e-16
       9528.5850   1.1169200e-16
       9529.7812   1.1664400e-16
       9530.9775   1.1453900e-16
       9532.1738   1.0575400e-16
       9533.3711   1.1247700e-16
       9534.5674   1.0514700e-16
       9535.7637   1.1059600e-16
       9536.9600   1.1545400e-16
       9538.1562   1.1101300e-16
       9539.3535   1.1411800e-16
       9540.5498   1.1323200e-16
       9541.7461   1.0731700e-16
       9542.9424   1.1055300e-16
       9544.1387   1.0707500e-16
       9545.3350   1.2118500e-16
       9546.5312   1.1385800e-16
       9547.7275   1.1065100e-16
       9548.9238   1.0837400e-16
       9550.1201   1.0895800e-16
       9551.3164   1.0094800e-16
       9552.5127             NaN
       9553.7090             NaN
       9554.9053             NaN
       9556.1016             NaN
       9557.2979             NaN
       9558.4941   1.1345300e-16
       9559.6904   1.0817100e-16
       9560.8857   1.0676200e-16
       9562.0820   1.1050000e-16
       9563.2783   1.0373400e-16
       9564.4746   1.1637300e-16
       9565.6709   1.1361200e-16
       9566.8672   1.0788200e-16
       9568.0625   1.0684500e-16
       9569.2588   1.0613500e-16
       9570.4551   1.0749700e-16
       9571.6514   1.0943200e-16
       9572.8467   1.1263900e-16
       9574.0430   1.0752100e-16
       9575.2393   1.0868800e-16
       9576.4346   1.1057300e-16
       9577.6309   1.0176100e-16
       9578.8271   1.0113600e-16
       9580.0225   1.0223400e-16
       9581.2188   1.1026600e-16
       9582.4141   1.1132700e-16
       9583.6104   1.0851600e-16
       9584.8066   1.0798400e-16
       9586.0020   1.0221200e-16
       9587.1982   1.0354600e-16
       9588.3936   1.0438600e-16
       9589.5898   1.0502800e-16
       9590.7852   1.1087400e-16
       9591.9814   1.1030200e-16
       9593.1768   1.1382300e-16
       9594.3721   1.1093100e-16
       9595.5684   1.0939100e-16
       9596.7637   1.0120100e-16
       9597.9600   1.0701900e-16
       9599.1553   1.1374300e-16
       9600.3506   1.0905300e-16
       9601.5469   1.0474200e-16
       9602.7422   1.0012200e-16
       9603.9375   1.0704600e-16
       9605.1338   1.0601800e-16
       9606.3291   1.1693800e-16
       9607.5244   1.0789600e-16
       9608.7197   1.0523700e-16
       9609.9160   1.0971600e-16
       9611.1113   1.0347200e-16
       9612.3066   1.0598500e-16
       9613.5020   9.8198600e-17
       9614.6973   1.0314900e-16
       9615.8926   1.0502000e-16
       9617.0889   1.0204600e-16
       9618.2842   1.0569000e-16
       9619.4795   1.0705000e-16
       9620.6748   1.0046100e-16
       9621.8701   1.1743000e-16
       9623.0654   1.1955400e-16
       9624.2607   1.0368400e-16
       9625.4561   1.0351200e-16
       9626.6514   1.0775900e-16
       9627.8467   1.0796700e-16
       9629.0420   1.1450500e-16
       9630.2373   1.0687900e-16
       9631.4326   1.0089000e-16
       9632.6279   1.0359100e-16
       9633.8232   1.0124800e-16
       9635.0186   1.0008000e-16
       9636.2139   1.0642300e-16
       9637.4082   1.1004700e-16
       9638.6035   1.1486300e-16
       9639.7988   1.1146300e-16
       9640.9941   1.0731000e-16
       9642.1895   1.0512500e-16
       9643.3838   1.0060100e-16
       9644.5791   1.0153000e-16
       9645.7744   1.0601000e-16
       9646.9697   1.1252800e-16
       9648.1641   1.1592100e-16
       9649.3594   1.1178100e-16
       9650.5547   1.0596600e-16
       9651.7490   1.0518000e-16
       9652.9443   1.0172300e-16
       9654.1396   1.0912800e-16
       9655.3340   1.0374400e-16
       9656.5293   1.0369100e-16
       9657.7236   1.1005500e-16
       9658.9189   1.0577900e-16
       9660.1143   1.0123700e-16
       9661.3086   1.0059500e-16
       9662.5039   1.1344300e-16
       9663.6982   1.0976200e-16
       9664.8936   1.1261300e-16
       9666.0879   1.1686300e-16
       9667.2822   1.1528200e-16
       9668.4775   1.0399100e-16
       9669.6719   1.1462600e-16
       9670.8672   1.1537100e-16
       9672.0615   1.0820300e-16
       9673.2559   1.0121800e-16
       9674.4512   1.1048500e-16
       9675.6455   1.1383400e-16
       9676.8398   1.0593100e-16
       9678.0352   1.0361000e-16
       9679.2295   1.0750200e-16
       9680.4238   1.0739800e-16
       9681.6191   1.1637600e-16
       9682.8135   1.0614800e-16
       9684.0078   1.0948700e-16
       9685.2021   1.0995600e-16
       9686.3965   1.0398100e-16
       9687.5918   1.0717300e-16
       9688.7861   1.0374200e-16
       9689.9805   1.1477700e-16
       9691.1748   9.9372800e-17
       9692.3691   1.0715400e-16
       9693.5635   1.0206900e-16
       9694.7578   1.0710400e-16
       9695.9521   1.0493800e-16
       9697.1465   1.0300900e-16
       9698.3408   1.0490900e-16
       9699.5352   1.0776400e-16
       9700.7295   1.0129000e-16
       9701.9238   1.0209200e-16
       9703.1182   1.0179800e-16
       9704.3125   1.0233900e-16
       9705.5068   1.1009200e-16
       9706.7012   1.0913600e-16
       9707.8955   1.0633400e-16
       9709.0898   1.0621100e-16
       9710.2842   1.0972400e-16
       9711.4775   1.0735600e-16
       9712.6719   1.0659500e-16
       9713.8662   1.0699000e-16
       9715.0605   1.0510600e-16
       9716.2539   1.0067900e-16
       9717.4482   1.1232600e-16
       9718.6426   1.0392400e-16
       9719.8369   1.0519300e-16
       9721.0303   1.0559000e-16
       9722.2246   1.0843000e-16
       9723.4189   9.9628500e-17
       9724.6123   1.0786800e-16
       9725.8066   1.0329900e-16
       9727.0010   1.0273700e-16
       9728.1943   1.0659900e-16
       9729.3887   1.0376200e-16
       9730.5820   1.0702600e-16
       9731.7764   9.9450800e-17
       9732.9697   1.0490400e-16
       9734.1641   1.0187500e-16
       9735.3574   1.0369200e-16
       9736.5518   9.4484900e-17
       9737.7451   1.0259200e-16
       9738.9395   1.0746600e-16
       9740.1328   9.7327100e-17
       9741.3262   1.0233700e-16
       9742.5205   1.0023200e-16
       9743.7139   9.7893800e-17
       9744.9072   9.8467400e-17
       9746.1016   9.9050600e-17
       9747.2949   1.0296000e-16
       9748.4883   1.0344700e-16
       9749.6826   9.6921400e-17
       9750.8760   1.0344600e-16
       9752.0693   1.0369500e-16
       9753.2627   9.0463000e-17
       9754.4570   9.5312300e-17
       9755.6504   1.0209600e-16
       9756.8438   9.6004600e-17
       9758.0371   1.0090100e-16
       9759.2305   1.0078500e-16
       9760.4238   9.9637494e-17
       9761.6172   9.9582824e-17
       9762.8105   9.9528158e-17
       9764.0049   9.9473441e-17
       9765.1982   9.9418775e-17
       9766.3916   9.9364105e-17
       9767.5850   9.9309434e-17
       9768.7783   9.9254768e-17
       9769.9717   9.9200098e-17
       9771.1650   9.9145432e-17
       9772.3574   9.9090807e-17
       9773.5508   9.9036136e-17
       9774.7441   9.8981470e-17
       9775.9375   9.8926800e-17
       9777.1309   9.8872129e-17
       9778.3242   9.8817463e-17
       9779.5176   9.8762793e-17
       9780.7109   9.8708127e-17
       9781.9033   9.8653502e-17
       9783.0967   1.0600300e-16
       9784.2900   1.0089800e-16
       9785.4834   9.8924700e-17
       9786.6758   1.0483500e-16
       9787.8691   8.8743400e-17
       9789.0625   1.0414100e-16
       9790.2549   8.1595800e-17
       9791.4482   9.0811800e-17
       9792.6416   9.0903700e-17
       9793.8340   9.9801700e-17
       9795.0273   8.9786000e-17
       9796.2197   1.0001900e-16
       9797.4131   9.3156300e-17
       9798.6064   9.3695800e-17
       9799.7988   9.1134000e-17
       9800.9922   9.6542900e-17
       9802.1846   9.0549400e-17
       9803.3779   9.7650000e-17
       9804.5703   9.3620900e-17
       9805.7627   1.0144400e-16
       9806.9561   9.0964300e-17
       9808.1484   9.1270500e-17
       9809.3418   9.8105500e-17
       9810.5342   1.0006800e-16
       9811.7266   9.6619700e-17
       9812.9199   9.3847400e-17
       9814.1123   9.8751600e-17
       9815.3047   9.0633100e-17
       9816.4980   9.2243500e-17
       9817.6904   9.5782800e-17
       9818.8828   9.4820300e-17
       9820.0752   9.5958000e-17
       9821.2676   9.2567500e-17
       9822.4609   9.5918100e-17
       9823.6533   9.0069500e-17
       9824.8457   8.4547500e-17
       9826.0381   9.4620000e-17
       9827.2305   8.9715800e-17
       9828.4229   8.8414300e-17
       9829.6152   8.9058200e-17
       9830.8076   9.4506900e-17
       9832.0000   8.9068300e-17
       9833.1924   9.1427700e-17
       9834.3848   9.6258300e-17
       9835.5771   9.3441200e-17
       9836.7695   9.4282400e-17
       9837.9619   9.0698300e-17
       9839.1543   9.1860700e-17
       9840.3467   9.4098200e-17
       9841.5391   8.8928900e-17
       9842.7314   8.6065800e-17
       9843.9238   9.0504900e-17
       9845.1152   9.2697500e-17
       9846.3076   9.0820300e-17
       9847.5000   8.8207300e-17
       9848.6924   8.8623300e-17
       9849.8848   9.2488300e-17
       9851.0762   8.6217900e-17
       9852.2686   8.9200300e-17
       9853.4609   8.8609200e-17
       9854.6523   9.5131200e-17
       9855.8447   9.3926200e-17
       9857.0371   8.8128500e-17
       9858.2285   8.6973800e-17
       9859.4209   9.1660800e-17
       9860.6133   8.9001500e-17
       9861.8047   8.9618600e-17
       9862.9971   9.1943800e-17
       9864.1885   8.8150100e-17
       9865.3809   8.1307100e-17
       9866.5723   9.0111500e-17
       9867.7646   8.5143000e-17
       9868.9561   8.8043900e-17
       9870.1475   8.9954300e-17
       9871.3398   9.4980300e-17
       9872.5312   9.9574300e-17
       9873.7236   8.4546200e-17
       9874.9150   9.0927300e-17
       9876.1064   7.9872700e-17
       9877.2988   8.5328900e-17
       9878.4902   8.5158400e-17
       9879.6816   9.4098700e-17
       9880.8730   9.1171500e-17
       9882.0654   9.1186700e-17
       9883.2568   8.9280900e-17
       9884.4482   8.9118800e-17
       9885.6396   9.0789300e-17
       9886.8320   9.4261100e-17
       9888.0234   9.3253000e-17
       9889.2148   8.8050300e-17
       9890.4062   9.4125000e-17
       9891.5977   9.6874800e-17
       9892.7891   9.6226600e-17
       9893.9805   9.9013300e-17
       9895.1719   9.0746100e-17
       9896.3633   9.3936900e-17
       9897.5547   8.8917700e-17
       9898.7461   9.5100200e-17
       9899.9375   8.7092700e-17
       9901.1289   9.8289200e-17
       9902.3203   9.1294500e-17
       9903.5117   8.3264000e-17
       9904.7031   9.2992600e-17
       9905.8945   9.3861000e-17
       9907.0850   9.6142200e-17
       9908.2764   8.9382400e-17
       9909.4678   9.4456900e-17
       9910.6592   9.6826800e-17
       9911.8506   9.3286100e-17
       9913.0410   1.0159600e-16
       9914.2324   8.5585500e-17
       9915.4238   9.0508800e-17
       9916.6143   9.5379200e-17
       9917.8057   8.5299800e-17
       9918.9971   9.7061600e-17
       9920.1875   9.1809900e-17
       9921.3789   9.2427200e-17
       9922.5693   8.5343800e-17
       9923.7607   9.0055400e-17
       9924.9521   8.2888300e-17
       9926.1426   9.1645700e-17
       9927.3340   8.2731900e-17
       9928.5244   8.7146800e-17
       9929.7148   8.7750900e-17
       9930.9062   9.2485100e-17
       9932.0967   8.5534400e-17
       9933.2881   8.6228200e-17
       9934.4785   8.7254200e-17
       9935.6689   8.5736200e-17
       9936.8604   8.4610200e-17
       9938.0508   9.2429900e-17
       9939.2422   9.5323700e-17
       9940.4326   8.7703000e-17
       9941.6230   9.4824300e-17
       9942.8135   8.8975200e-17
       9944.0049   8.5332400e-17
       9945.1953   9.6101500e-17
       9946.3857   8.7308900e-17
       9947.5762   5.9957700e-17
       9948.7666   9.3311700e-17
       9949.9570   8.2022300e-17
       9951.1475   8.7370200e-17
       9952.3389   8.4250800e-17
       9953.5283   8.6021700e-17
       9954.7197   9.3046100e-17
       9955.9102   8.5738800e-17
       9957.1006   8.9604600e-17
       9958.2910   9.1053200e-17
       9959.4814   9.5877500e-17
       9960.6719   7.7466300e-17
       9961.8613   9.2832400e-17
       9963.0518   8.7221900e-17
       9964.2422   8.0166000e-17
       9965.4326   9.4038800e-17
       9966.6230   8.1661600e-17
       9967.8135   8.8442700e-17
       9969.0029   8.1638100e-17
       9970.1934   9.1297600e-17
       9971.3838   9.8133200e-17
       9972.5742   9.1527800e-17
       9973.7646   8.4228100e-17
       9974.9541   8.4149100e-17
       9976.1445   8.1195300e-17
       9977.3350   8.5769000e-17
       9978.5244   8.3930000e-17
       9979.7148   8.4725400e-17
       9980.9043   8.1544800e-17
       9982.0947   8.3301900e-17
       9983.2852   8.1423800e-17
       9984.4746   8.6367300e-17
       9985.6650   8.1951400e-17
       9986.8545   8.8188800e-17
       9988.0449   8.4374200e-17
       9989.2344   8.3966400e-17
       9990.4238   8.5878600e-17
       9991.6143   9.0252200e-17
       9992.8037   8.2517300e-17
       9993.9941   8.5480500e-17
       9995.1836   7.7796200e-17
       9996.3730   8.5358300e-17
       9997.5635   8.4531500e-17
       9998.7529   8.3635000e-17
       9999.9424   8.6115600e-17
       10001.132   7.7682800e-17
       10002.322   8.4119000e-17
       10003.512   8.2156400e-17
       10004.701   8.0931600e-17
       10005.891   8.1928400e-17
       10007.080   8.4208100e-17
       10008.270   8.1191800e-17
       10009.460   9.4437300e-17
       10010.649   7.9955800e-17
       10011.839   9.2820000e-17
       10013.028   9.5220000e-17
       10014.218   8.0442500e-17
       10015.407   7.7922800e-17
       10016.596   6.0849800e-17
       10017.786   7.2399000e-17
       10018.975   8.4197000e-17
       10020.165   8.2655500e-17
       10021.354   8.8236500e-17
       10022.543   8.4346500e-17
       10023.733   8.7248100e-17
       10024.922   7.1783200e-17
       10026.111   8.8852700e-17
       10027.300   7.8438600e-17
       10028.490   8.2112600e-17
       10029.679   7.9035100e-17
       10030.868   8.0328000e-17
       10032.057   8.2875500e-17
       10033.246   8.3404200e-17
       10034.435   8.1853700e-17
       10035.624   7.8369700e-17
       10036.814   9.1380300e-17
       10038.003   8.1426200e-17
       10039.192   7.9039700e-17
       10040.381   8.7659800e-17
       10041.570   7.7957400e-17
       10042.759   7.9446700e-17
       10043.948   7.9302200e-17
       10045.136   7.9379800e-17
       10046.325   7.3771700e-17
       10047.514   7.6012500e-17
       10048.703   7.6098600e-17
       10049.892   8.2311300e-17
       10051.081   7.5306000e-17
       10052.270   7.6087000e-17
       10053.458   7.9550000e-17
       10054.647   8.0114200e-17
       10055.836   8.2536200e-17
       10057.025   7.7568900e-17
       10058.213   8.1067100e-17
       10059.402   6.6072800e-17
       10060.591   7.9306400e-17
       10061.779   7.5742000e-17
       10062.968   8.1101200e-17
       10064.156   7.7298300e-17
       10065.345   8.5868100e-17
       10066.534   8.1736500e-17
       10067.722   8.1057200e-17
       10068.911   7.0126200e-17
       10070.099   7.3200600e-17
       10071.288   8.1850800e-17
       10072.476   8.8847700e-17
       10073.664   7.2713300e-17
       10074.853   7.8612500e-17
       10076.041   8.5076600e-17
       10077.230   7.2895800e-17
       10078.418   7.0176800e-17
       10079.606   6.4945400e-17
       10080.795   8.9012000e-17
       10081.983   7.7967100e-17
       10083.171   8.8407400e-17
       10084.359   8.0176200e-17
       10085.548   7.7711800e-17
       10086.736   7.7445000e-17
       10087.924   7.5424200e-17
       10089.112   8.4133200e-17
       10090.300   7.7927200e-17
       10091.488   8.5012300e-17
       10092.676   7.0499100e-17
       10093.864   7.8565600e-17
       10095.052   8.3893400e-17
       10096.240   7.7059900e-17
       10097.428   7.6357200e-17
       10098.616   7.8739000e-17
       10099.804   8.4396500e-17
       10100.992   8.4856400e-17
       10102.180   8.2121900e-17
       10103.368   7.9282700e-17
       10104.556   8.7966000e-17
       10105.744   7.4267300e-17
       10106.932   8.0666500e-17
       10108.119   8.3410300e-17
       10109.307   7.1830300e-17
       10110.495   7.2660700e-17
       10111.683   7.4400500e-17
       10112.870   7.5268700e-17
       10114.058   7.6906600e-17
       10115.246   6.7747900e-17
       10116.433   6.7460700e-17
       10117.621   7.5718200e-17
       10118.809   7.6243200e-17
       10119.996   7.1123700e-17
       10121.184   6.8015900e-17
       10122.371   8.2255400e-17
       10123.559   7.3006500e-17
       10124.746   6.7955400e-17
       10125.934   8.6022200e-17
       10127.121   5.5154100e-17
       10128.308   7.1292000e-17
       10129.496   7.7159800e-17
       10130.683   6.4408600e-17
       10131.871   7.2482200e-17
       10133.058   7.0721400e-17
       10134.245   6.8559400e-17
       10135.433   7.1018500e-17
       10136.620   7.0489400e-17
       10137.807   6.3457300e-17
       10138.994   7.5735600e-17
       10140.181   5.8018500e-17
       10141.369   6.5809000e-17
       10142.556   6.5306500e-17
       10143.743   6.7695200e-17
       10144.930   7.0601800e-17
       10146.117   6.9524200e-17
       10147.304   6.1850800e-17
       10148.491   7.6587700e-17
       10149.678   6.8136500e-17
       10150.865   6.8565300e-17
       10152.052   7.2717700e-17
       10153.239   8.4765400e-17
       10154.426   6.1695000e-17
       10155.613   7.4088400e-17
       10156.800   5.6992800e-17
       10157.987   4.8611100e-17
       10159.174   5.7121000e-17
       10160.360   6.1894200e-17
       10161.547   6.5592300e-17
       10162.734   5.1843700e-17
       10163.921   5.7915500e-17
       10165.107   6.2055200e-17
       10166.294   6.6379700e-17
       10167.481   7.2678200e-17
       10168.667   5.3271600e-17
       10169.854   6.0642700e-17
       10171.041   7.1605000e-17
       10172.227   4.9205700e-17
       10173.414   4.5711400e-17
       10174.600   4.9154500e-17
       10175.787   6.7667000e-17
       10176.973   7.2033800e-17
       10178.160   5.4179500e-17
       10179.346   6.2753400e-17
       10180.533   6.8430700e-17
       10181.719   6.1347100e-17
       10182.905   5.3300200e-17
       10184.092   5.9932700e-17
       10185.278   6.2292200e-17
       10186.464   4.5469100e-17
       10187.651   5.4157900e-17
       10188.837   5.7103800e-17
       10190.023   4.2848400e-17
       10191.209   7.8436000e-17
       10192.395   5.5093300e-17
       10193.582   5.2331700e-17
       10194.768   5.3999000e-17
       10195.954   4.6260100e-17
       10197.140   5.9561500e-17
       10198.326   4.8052200e-17
       10199.512   4.3749900e-17
       10200.698   4.3420900e-17
       10201.884   4.6908700e-17
       10203.070   6.5593500e-17
       10204.256   4.8447400e-17
       10205.442   5.6681400e-17
       10206.628   5.8636000e-17
       10207.814   4.3293500e-17
       10209.000   5.1503700e-17
       10210.185   5.5652700e-17
       10211.371   6.0518300e-17
       10212.557   4.9200000e-17
       10213.743   5.2797000e-17
       10214.929   5.1035000e-17
       10216.114   5.2624500e-17
       10217.300   4.6277300e-17
       10218.486   6.3028400e-17
       10219.671   5.1861200e-17
       10220.857   5.1246400e-17
       10222.042   6.3284600e-17
       10223.228   5.3150700e-17
       10224.414   5.2893000e-17
       10225.599   4.2004600e-17
       10226.785   4.0006300e-17
       10227.970   5.1180400e-17
       10229.155   6.2704300e-17
       10230.341   7.1671200e-17
       10231.526   5.5242500e-17
       10232.712   4.9726500e-17
       10233.897   4.3463700e-17
       10235.082   4.9148500e-17
       10236.268   5.3926400e-17
       10237.453   6.1321400e-17
       10238.638   5.4343800e-17
       10239.823   4.9804100e-17
       10241.009   5.3395300e-17
       10242.194   5.1930200e-17
       10243.379   4.4408300e-17
       10244.564   5.4630700e-17
       10245.749   4.9335300e-17
       10246.934   5.4827400e-17
       10248.119   5.2047500e-17
       10249.304   5.2772500e-17
       10250.489   6.3506200e-17
       10251.674   4.8174900e-17
       10252.859   5.2161200e-17
       10254.044   3.9079500e-17
       10255.229   4.5287900e-17
       10256.414   5.4383800e-17
       10257.599   6.3848700e-17
       10258.784   5.9115100e-17
       10259.969   5.5913100e-17
       10261.153   5.8218800e-17
       10262.338   4.1268300e-17
       10263.523   5.2948000e-17
       10264.708   5.5537800e-17
       10265.892   5.1195900e-17
       10267.077   4.8149700e-17
       10268.262   5.0621900e-17
       10269.446   5.5394200e-17
       10270.631   5.1460000e-17
       10271.815   3.9840700e-17
       10273.000   4.3887600e-17
       10274.184   4.0333400e-17
       10275.369   5.0900000e-17
       10276.553   5.4948600e-17
       10277.738   6.8442900e-17
       10278.922   4.5640100e-17
       10280.107   5.7399400e-17
       10281.291   4.4759300e-17
       10282.475   7.5138400e-17
       10283.660   6.5499100e-17
       10284.844   1.7718200e-17
       10286.028   3.9102300e-17
       10287.212   5.5697300e-17
       10288.397   1.3404100e-17
       10289.581   5.9801500e-17
       10290.765   4.3408800e-17
       10291.949   3.6607800e-17
       10293.133   5.6250500e-17
       10294.317   4.5564500e-17
       10295.501   5.2870400e-17
       10296.685   3.7373000e-17
       10297.869   2.8957500e-17
       10299.053   2.5529000e-17
       10300.237   4.9472700e-17
       10301.421   5.3903500e-17
       10302.605   4.7290000e-17
       10303.789   4.7847200e-17
       10304.973   4.0121900e-17
